EEG 1,EEG 2,EEG 3,EEG 4,EEG 5,EEG 6,EEG 7,EEG 8,Accelerometer X,Accelerometer Y,Accelerometer Z,Gyroscope X,Gyroscope Y,Gyroscope Z,Battery Level,Counter,Validation Indicator
4.476,0.932,0.482,2.141,0.091,-3.760,0.605,0.792,0.051,0.972,-0.283,-0.366,0.214,0.610,100.000,74073.000,1.000
3.627,0.771,0.493,1.647,-0.730,-4.507,-0.351,-0.161,0.048,0.974,-0.282,-0.183,0.244,0.671,100.000,74074.000,1.000
1.817,0.085,0.141,0.482,-2.213,-5.230,-1.960,-1.915,0.048,0.973,-0.281,-0.122,0.366,0.610,100.000,74075.000,1.000
-0.420,-0.678,-0.394,-0.986,-3.837,-5.576,-3.573,-3.884,0.046,0.973,-0.285,0.153,0.427,0.549,100.000,74076.000,1.000
-2.386,-1.083,-0.874,-2.259,-5.046,-5.321,-4.605,-5.346,0.047,0.973,-0.283,0.153,0.366,0.458,100.000,74077.000,1.000
-3.613,-0.985,-1.154,-2.965,-5.517,-4.540,-4.800,-5.819,0.047,0.973,-0.280,0.122,0.397,0.305,100.000,74078.000,1.000
-4.016,-0.475,-1.227,-3.040,-5.243,-3.525,-4.272,-5.287,0.047,0.977,-0.283,0.183,0.427,0.366,100.000,74079.000,1.000
-3.780,0.369,-1.107,-2.619,-4.386,-2.556,-3.368,-4.080,0.046,0.977,-0.284,0.275,0.458,0.305,100.000,74080.000,1.000
-3.224,1.509,-0.770,-1.871,-3.134,-1.719,-2.409,-2.646,0.047,0.977,-0.286,0.366,0.488,0.153,100.000,74081.000,1.000
-2.692,2.705,-0.299,-1.039,-1.751,-0.939,-1.579,-1.469,0.046,0.977,-0.282,0.427,0.519,0.153,100.000,74082.000,1.000
-2.402,3.511,0.064,-0.449,-0.581,-0.111,-0.957,-0.961,0.048,0.980,-0.286,0.488,0.397,-0.061,100.000,74083.000,1.000
-2.371,3.576,0.067,-0.352,0.090,0.730,-0.599,-1.260,0.047,0.981,-0.285,0.519,0.458,-0.061,100.000,74084.000,1.000
-2.557,2.788,-0.466,-0.822,0.077,1.267,-0.612,-2.170,0.046,0.983,-0.282,0.549,0.397,-0.092,100.000,74085.000,1.000
-3.001,1.219,-1.618,-1.793,-0.697,1.085,-1.093,-3.257,0.044,0.984,-0.286,0.488,0.305,-0.092,100.000,74086.000,1.000
-3.695,-0.797,-3.215,-3.040,-2.022,0.133,-1.894,-3.965,0.042,0.983,-0.285,0.458,0.275,-0.122,100.000,74087.000,1.000
-4.409,-2.590,-4.720,-4.149,-3.263,-1.078,-2.524,-3.793,0.043,0.978,-0.283,0.305,0.305,-0.092,100.000,74088.000,1.000
-4.846,-3.469,-5.517,-4.715,-3.680,-1.811,-2.444,-2.612,0.042,0.978,-0.283,0.153,0.244,-0.092,100.000,74089.000,1.000
-4.910,-3.202,-5.354,-4.631,-2.984,-1.626,-1.537,-0.850,0.043,0.976,-0.282,0.305,0.061,-0.122,100.000,74090.000,1.000
-4.748,-2.143,-4.507,-4.145,-1.577,-0.642,-0.242,0.731,0.045,0.981,-0.286,0.397,0.031,-0.214,100.000,74091.000,1.000
-4.590,-0.952,-3.553,-3.653,-0.256,0.564,0.811,1.524,0.045,0.983,-0.288,0.427,-0.092,-0.183,100.000,74092.000,1.000
-4.550,-0.223,-2.974,-3.409,0.341,1.343,1.277,1.390,0.045,0.986,-0.291,0.397,-0.092,0.061,100.000,74093.000,1.000
-4.502,-0.177,-2.817,-3.343,0.186,1.435,1.251,0.667,0.044,0.985,-0.290,0.336,-0.092,0.153,100.000,74094.000,1.000
-4.080,-0.538,-2.636,-3.036,-0.100,1.172,1.131,0.021,0.043,0.982,-0.289,0.244,-0.183,0.244,100.000,74095.000,1.000
-3.013,-0.793,-1.923,-2.073,0.231,1.040,1.299,0.057,0.044,0.979,-0.289,0.244,-0.275,0.244,100.000,74096.000,1.000
-1.550,-0.706,-0.729,-0.576,1.343,1.053,1.801,0.837,0.045,0.978,-0.288,0.183,-0.366,0.275,100.000,74097.000,1.000
-0.371,-0.432,0.329,0.782,2.707,0.871,2.374,1.866,0.046,0.978,-0.290,0.122,-0.458,0.336,100.000,74098.000,1.000
-0.073,-0.226,0.635,1.314,3.585,0.316,2.671,2.522,0.046,0.979,-0.290,0.183,-0.397,0.336,100.000,74099.000,1.000
-0.877,-0.379,-0.066,0.677,3.397,-0.629,2.348,2.343,0.045,0.978,-0.289,0.122,-0.427,0.336,100.000,74100.000,1.000
-2.618,-1.237,-1.650,-1.081,1.871,-2.006,1.176,1.158,0.043,0.980,-0.288,0.092,-0.519,0.458,100.000,74101.000,1.000
-4.806,-2.882,-3.607,-3.487,-0.743,-3.622,-0.682,-0.784,0.046,0.979,-0.293,-0.031,-0.641,0.366,100.000,74102.000,1.000
-6.720,-4.827,-5.182,-5.762,-3.667,-4.929,-2.605,-2.914,0.046,0.979,-0.292,-0.183,-0.580,0.122,100.000,74103.000,1.000
-7.677,-6.201,-5.717,-7.161,-5.975,-5.423,-3.945,-4.639,0.046,0.980,-0.293,-0.244,-0.580,0.061,100.000,74104.000,1.000
-7.443,-6.323,-5.005,-7.334,-7.111,-5.004,-4.550,-5.571,0.046,0.980,-0.292,-0.244,-0.641,-0.061,100.000,74105.000,1.000
-6.463,-5.229,-3.463,-6.524,-7.146,-3.851,-4.652,-5.653,0.045,0.980,-0.290,-0.183,-0.732,-0.183,100.000,74106.000,1.000
-5.520,-3.608,-1.929,-5.397,-6.580,-2.183,-4.295,-5.061,0.048,0.980,-0.291,-0.244,-0.671,-0.305,100.000,74107.000,1.000
-5.101,-2.259,-1.101,-4.594,-5.905,-0.263,-3.259,-3.974,0.049,0.982,-0.288,-0.549,-0.671,-0.427,100.000,74108.000,1.000
-5.141,-1.659,-1.130,-4.363,-5.345,1.513,-1.584,-2.522,0.049,0.984,-0.289,-0.580,-0.641,-0.519,100.000,74109.000,1.000
-5.312,-1.818,-1.623,-4.503,-4.834,2.762,0.247,-0.908,0.048,0.983,-0.289,-0.610,-0.580,-0.610,100.000,74110.000,1.000
-5.356,-2.285,-1.963,-4.601,-4.121,3.379,1.677,0.508,0.048,0.979,-0.291,-0.854,-0.549,-0.519,100.000,74111.000,1.000
-5.119,-2.419,-1.654,-4.306,-2.977,3.545,2.398,1.421,0.047,0.979,-0.290,-0.824,-0.610,-0.488,100.000,74112.000,1.000
-4.475,-1.815,-0.563,-3.470,-1.439,3.472,2.388,1.812,0.047,0.979,-0.292,-1.007,-0.519,-0.336,100.000,74113.000,1.000
-3.425,-0.608,0.957,-2.243,0.105,3.187,1.834,1.819,0.045,0.977,-0.292,-1.068,-0.580,-0.397,100.000,74114.000,1.000
-2.211,0.635,2.243,-1.041,1.171,2.578,1.074,1.571,0.045,0.977,-0.288,-1.129,-0.549,-0.458,100.000,74115.000,1.000
-1.098,1.423,2.884,-0.167,1.669,1.670,0.541,1.312,0.044,0.979,-0.287,-1.099,-0.519,-0.397,100.000,74116.000,1.000
-0.092,1.723,3.083,0.507,2.011,0.744,0.516,1.348,0.043,0.979,-0.289,-1.099,-0.488,-0.275,100.000,74117.000,1.000
0.897,1.729,3.251,1.262,2.559,0.040,0.837,1.686,0.043,0.978,-0.291,-1.190,-0.580,-0.366,100.000,74118.000,1.000
1.789,1.541,3.448,2.081,3.169,-0.422,1.016,1.966,0.041,0.980,-0.290,-1.251,-0.580,-0.366,100.000,74119.000,1.000
2.409,1.215,3.416,2.679,3.449,-0.687,0.666,1.875,0.042,0.979,-0.288,-1.343,-0.610,-0.244,100.000,74120.000,1.000
2.689,0.887,2.956,2.878,3.282,-0.739,-0.179,1.480,0.042,0.980,-0.289,-1.434,-0.610,-0.122,100.000,74121.000,1.000
2.724,0.717,2.181,2.852,2.988,-0.516,-1.016,1.206,0.042,0.980,-0.291,-1.526,-0.671,-0.061,100.000,74122.000,1.000
2.732,0.821,1.482,3.010,3.056,0.098,-1.170,1.538,0.043,0.980,-0.289,-1.587,-0.702,-0.061,100.000,74123.000,1.000
2.929,1.220,1.279,3.635,3.731,1.151,-0.287,2.612,0.042,0.979,-0.289,-1.709,-0.641,0.061,100.000,74124.000,1.000
3.383,1.805,1.720,4.602,4.796,2.441,1.373,3.943,0.043,0.980,-0.288,-1.617,-0.702,0.000,100.000,74125.000,1.000
3.987,2.345,2.563,5.459,5.748,3.604,3.107,4.634,0.043,0.981,-0.287,-1.678,-0.702,0.031,100.000,74126.000,1.000
4.580,2.637,3.377,5.834,6.237,4.433,4.263,4.119,0.042,0.980,-0.287,-1.678,-0.824,0.061,100.000,74127.000,1.000
5.000,2.647,3.791,5.630,6.267,4.942,4.594,2.622,0.043,0.979,-0.289,-1.678,-0.885,0.214,100.000,74128.000,1.000
5.004,2.408,3.555,4.868,5.954,5.133,4.196,0.837,0.043,0.981,-0.289,-1.740,-0.793,0.305,100.000,74129.000,1.000
4.331,1.878,2.565,3.583,5.281,4.900,3.290,-0.686,0.045,0.979,-0.290,-1.740,-0.824,0.214,100.000,74130.000,1.000
2.960,1.073,0.995,1.975,4.213,4.193,2.195,-1.724,0.044,0.979,-0.286,-1.770,-0.702,0.336,100.000,74131.000,1.000
1.239,0.196,-0.647,0.501,2.961,3.205,1.366,-2.145,0.045,0.981,-0.289,-1.770,-0.824,0.275,100.000,74132.000,1.000
-0.323,-0.475,-1.761,-0.371,1.959,2.276,1.166,-1.887,0.046,0.980,-0.288,-1.831,-0.702,0.458,100.000,74133.000,1.000
-1.322,-0.792,-1.988,-0.490,1.558,1.552,1.543,-1.191,0.045,0.980,-0.288,-1.770,-0.641,0.458,100.000,74134.000,1.000
-1.505,-0.739,-1.314,-0.031,1.829,0.914,2.101,-0.498,0.045,0.979,-0.286,-1.801,-0.641,0.366,100.000,74135.000,1.000
-0.737,-0.298,0.018,0.756,2.649,0.317,2.462,-0.041,0.048,0.978,-0.286,-1.740,-0.549,0.427,100.000,74136.000,1.000
0.863,0.567,1.619,1.662,3.784,-0.023,2.462,0.298,0.047,0.975,-0.287,-1.740,-0.610,0.427,100.000,74137.000,1.000
2.753,1.736,3.003,2.479,4.862,0.040,2.058,0.764,0.045,0.974,-0.286,-1.678,-0.458,0.366,100.000,74138.000,1.000
4.142,2.832,3.726,3.023,5.438,0.267,1.292,1.455,0.046,0.977,-0.284,-1.556,-0.366,0.336,100.000,74139.000,1.000
4.459,3.379,3.576,3.224,5.242,0.209,0.382,2.270,0.047,0.976,-0.285,-1.434,-0.397,0.427,100.000,74140.000,1.000
3.641,3.092,2.627,3.101,4.325,-0.388,-0.313,3.073,0.048,0.976,-0.287,-1.495,-0.397,0.366,100.000,74141.000,1.000
1.986,2.018,1.121,2.630,2.973,-1.378,-0.467,3.782,0.049,0.975,-0.286,-1.373,-0.336,0.488,100.000,74142.000,1.000
-0.078,0.475,-0.602,1.801,1.587,-2.254,0.099,4.330,0.050,0.976,-0.285,-1.343,-0.153,0.336,100.000,74143.000,1.000
-1.983,-1.021,-2.055,0.883,0.678,-2.369,1.425,4.735,0.048,0.977,-0.285,-1.282,-0.092,0.244,100.000,74144.000,1.000
-3.075,-1.857,-2.723,0.400,0.703,-1.365,3.335,5.154,0.048,0.978,-0.284,-1.160,0.031,0.305,100.000,74145.000,1.000
-2.952,-1.614,-2.435,0.654,1.622,0.440,5.281,5.637,0.047,0.977,-0.283,-1.160,0.122,0.244,100.000,74146.000,1.000
-1.753,-0.410,-1.560,1.383,2.740,2.120,6.437,5.923,0.049,0.978,-0.284,-1.068,0.122,0.092,100.000,74147.000,1.000
-0.100,1.019,-0.758,1.991,3.164,2.697,6.192,5.674,0.049,0.979,-0.286,-1.038,0.183,0.366,100.000,74148.000,1.000
1.257,1.815,-0.469,2.071,2.496,1.829,4.570,4.827,0.048,0.979,-0.284,-1.068,0.275,0.214,100.000,74149.000,1.000
1.823,1.669,-0.626,1.675,1.105,0.021,2.239,3.607,0.049,0.981,-0.283,-1.068,0.427,0.214,100.000,74150.000,1.000
1.516,0.868,-0.838,1.125,-0.244,-1.846,0.119,2.306,0.049,0.984,-0.281,-1.129,0.458,0.153,100.000,74151.000,1.000
0.575,-0.147,-0.820,0.667,-0.983,-3.151,-1.157,1.109,0.049,0.983,-0.279,-1.099,0.519,0.000,100.000,74152.000,1.000
-0.527,-1.028,-0.571,0.365,-1.050,-3.776,-1.514,0.078,0.047,0.985,-0.281,-1.221,0.610,-0.061,100.000,74153.000,1.000
-1.125,-1.465,-0.130,0.305,-0.655,-3.795,-1.153,-0.649,0.045,0.983,-0.281,-1.282,0.610,-0.031,100.000,74154.000,1.000
-0.638,-1.229,0.590,0.693,0.049,-3.211,-0.226,-0.768,0.045,0.981,-0.280,-1.221,0.671,0.092,100.000,74155.000,1.000
0.970,-0.359,1.634,1.558,0.930,-2.219,0.970,-0.206,0.045,0.982,-0.278,-1.251,0.610,-0.214,100.000,74156.000,1.000
3.186,0.891,2.934,2.621,1.774,-1.417,1.757,0.540,0.045,0.983,-0.279,-1.282,0.671,-0.214,100.000,74157.000,1.000
5.424,2.324,4.463,3.613,2.475,-1.343,1.500,0.837,0.044,0.983,-0.279,-1.343,0.610,-0.214,100.000,74158.000,1.000
7.348,3.878,6.216,4.519,3.171,-1.919,0.217,0.559,0.041,0.982,-0.276,-1.373,0.488,-0.031,100.000,74159.000,1.000
8.826,5.440,8.010,5.443,4.047,-2.560,-1.398,0.132,0.042,0.979,-0.279,-1.373,0.519,0.031,100.000,74160.000,1.000
9.814,6.758,9.486,6.401,5.080,-2.726,-2.523,0.105,0.041,0.977,-0.279,-1.312,0.427,-0.031,100.000,74161.000,1.000
10.290,7.593,10.293,7.239,6.002,-2.242,-2.682,0.766,0.041,0.976,-0.278,-1.221,0.397,0.031,100.000,74162.000,1.000
10.168,7.796,10.171,7.584,6.379,-1.327,-1.971,1.825,0.040,0.976,-0.277,-1.190,0.244,0.092,100.000,74163.000,1.000
9.324,7.247,8.953,6.928,5.758,-0.484,-0.997,2.432,0.039,0.976,-0.280,-1.068,0.153,0.153,100.000,74164.000,1.000
7.848,6.005,6.788,5.088,4.019,-0.135,-0.431,1.815,0.039,0.976,-0.280,-1.007,0.000,0.183,100.000,74165.000,1.000
6.191,4.505,4.275,2.581,1.648,-0.231,-0.533,-0.021,0.040,0.977,-0.281,-0.793,-0.092,0.122,100.000,74166.000,1.000
4.880,3.303,2.187,0.322,-0.533,-0.320,-1.078,-2.308,0.040,0.977,-0.280,-0.702,-0.153,0.122,100.000,74167.000,1.000
4.145,2.638,1.019,-1.009,-1.915,-0.015,-1.629,-4.101,0.039,0.977,-0.281,-0.549,-0.275,0.214,100.000,74168.000,1.000
3.882,2.313,0.780,-1.268,-2.396,0.663,-1.882,-4.840,0.040,0.974,-0.282,-0.366,-0.305,0.183,100.000,74169.000,1.000
3.883,1.957,1.139,-0.717,-2.256,1.359,-1.809,-4.507,0.042,0.975,-0.281,-0.183,-0.366,0.305,100.000,74170.000,1.000
4.054,1.377,1.741,0.259,-1.841,1.746,-1.536,-3.451,0.044,0.973,-0.283,0.000,-0.427,0.366,100.000,74171.000,1.000
4.419,0.735,2.400,1.350,-1.345,1.793,-1.149,-2.166,0.045,0.972,-0.283,0.092,-0.397,0.305,100.000,74172.000,1.000
4.951,0.391,3.053,2.339,-0.840,1.723,-0.643,-1.117,0.046,0.973,-0.284,0.214,-0.427,0.336,100.000,74173.000,1.000
5.438,0.573,3.606,3.024,-0.427,1.713,-0.059,-0.533,0.045,0.974,-0.284,0.214,-0.488,0.214,100.000,74174.000,1.000
5.478,1.100,3.838,3.163,-0.320,1.679,0.347,-0.346,0.046,0.977,-0.283,0.275,-0.488,0.275,100.000,74175.000,1.000
4.607,1.380,3.418,2.499,-0.803,1.344,0.199,-0.412,0.046,0.976,-0.283,0.336,-0.488,0.458,100.000,74176.000,1.000
2.560,0.736,2.076,0.941,-2.045,0.499,-0.649,-0.721,0.046,0.975,-0.281,0.458,-0.458,0.366,100.000,74177.000,1.000
-0.477,-1.128,-0.212,-1.299,-3.919,-0.809,-1.938,-1.353,0.045,0.976,-0.283,0.488,-0.458,0.244,100.000,74178.000,1.000
-3.908,-3.889,-3.191,-3.823,-6.046,-2.314,-3.160,-2.285,0.047,0.977,-0.283,0.580,-0.488,0.275,100.000,74179.000,1.000
-7.088,-6.828,-6.460,-6.317,-8.043,-3.754,-3.891,-3.400,0.045,0.976,-0.284,0.671,-0.366,0.214,100.000,74180.000,1.000
-9.630,-9.238,-9.558,-8.603,-9.686,-4.968,-4.030,-4.642,0.047,0.976,-0.281,0.671,-0.244,0.092,100.000,74181.000,1.000
-11.442,-10.712,-12.007,-10.479,-10.876,-5.835,-3.797,-5.993,0.047,0.975,-0.284,0.732,-0.214,0.061,100.000,74182.000,1.000
-12.614,-11.208,-13.484,-11.669,-11.609,-6.256,-3.526,-7.335,0.047,0.976,-0.287,0.854,-0.214,0.061,100.000,74183.000,1.000
-13.286,-10.919,-13.933,-11.972,-11.945,-6.151,-3.478,-8.460,0.045,0.979,-0.285,0.793,-0.153,-0.031,100.000,74184.000,1.000
-13.450,-9.995,-13.454,-11.386,-11.877,-5.427,-3.702,-9.099,0.044,0.978,-0.286,0.793,-0.092,-0.122,100.000,74185.000,1.000
-12.925,-8.498,-12.204,-10.119,-11.313,-4.094,-3.969,-8.986,0.046,0.979,-0.286,0.702,-0.031,-0.153,100.000,74186.000,1.000
-11.670,-6.625,-10.492,-8.536,-10.293,-2.515,-4.005,-8.125,0.047,0.979,-0.289,0.732,0.061,-0.153,100.000,74187.000,1.000
-10.069,-4.815,-8.855,-7.108,-9.161,-1.386,-3.829,-6.906,0.046,0.978,-0.288,0.641,0.061,-0.092,100.000,74188.000,1.000
-8.772,-3.573,-7.877,-6.266,-8.404,-1.278,-3.717,-5.852,0.044,0.981,-0.288,0.702,0.214,-0.092,100.000,74189.000,1.000
-8.200,-3.151,-7.780,-6.058,-8.236,-2.142,-3.803,-5.235,0.046,0.981,-0.288,0.671,0.183,-0.122,100.000,74190.000,1.000
-8.241,-3.362,-8.227,-5.993,-8.373,-3.304,-3.832,-4.846,0.045,0.982,-0.290,0.610,0.153,-0.122,100.000,74191.000,1.000
-8.414,-3.754,-8.584,-5.438,-8.271,-3.986,-3.414,-4.180,0.046,0.980,-0.288,0.488,0.122,-0.061,100.000,74192.000,1.000
-8.225,-3.953,-8.372,-4.215,-7.572,-3.863,-2.487,-2.924,0.044,0.982,-0.288,0.427,0.153,-0.122,100.000,74193.000,1.000
-7.448,-3.947,-7.507,-2.751,-6.325,-3.182,-1.397,-1.280,0.044,0.984,-0.285,0.275,0.153,0.000,100.000,74194.000,1.000
-6.226,-4.054,-6.265,-1.705,-4.904,-2.475,-0.559,0.191,0.045,0.985,-0.286,0.031,0.153,0.153,100.000,74195.000,1.000
-4.931,-4.546,-5.081,-1.520,-3.786,-2.171,-0.222,0.994,0.046,0.987,-0.285,-0.092,0.275,0.122,100.000,74196.000,1.000
-3.824,-5.292,-4.280,-2.199,-3.284,-2.322,-0.476,1.041,0.044,0.988,-0.285,-0.366,0.244,0.000,100.000,74197.000,1.000
-2.892,-5.841,-3.856,-3.267,-3.345,-2.567,-1.199,0.667,0.043,0.989,-0.284,-0.549,0.275,0.061,100.000,74198.000,1.000
-1.996,-5.760,-3.473,-3.981,-3.551,-2.400,-1.945,0.473,0.043,0.988,-0.286,-0.671,0.336,0.153,100.000,74199.000,1.000
-1.118,-4.884,-2.779,-3.766,-3.435,-1.620,-2.167,0.988,0.042,0.990,-0.288,-0.946,0.244,0.061,100.000,74200.000,1.000
-0.402,-3.403,-1.768,-2.614,-2.817,-0.466,-1.650,2.312,0.043,0.988,-0.287,-1.160,0.275,0.183,100.000,74201.000,1.000
0.041,-1.777,-0.745,-1.022,-1.802,0.754,-0.560,4.075,0.042,0.986,-0.284,-1.373,0.275,0.214,100.000,74202.000,1.000
0.314,-0.427,0.041,0.421,-0.579,1.939,0.760,5.754,0.042,0.986,-0.287,-1.404,0.275,0.214,100.000,74203.000,1.000
0.647,0.512,0.623,1.347,0.660,3.056,1.869,6.914,0.043,0.986,-0.287,-1.587,0.275,0.244,100.000,74204.000,1.000
1.143,1.107,1.148,1.649,1.677,3.979,2.320,7.219,0.043,0.985,-0.284,-1.678,0.214,0.366,100.000,74205.000,1.000
1.667,1.344,1.632,1.402,2.241,4.550,1.961,6.436,0.044,0.985,-0.286,-1.831,0.214,0.214,100.000,74206.000,1.000
2.071,1.129,2.011,0.873,2.353,4.765,1.260,4.702,0.044,0.985,-0.284,-1.770,0.183,0.397,100.000,74207.000,1.000
2.492,0.600,2.390,0.515,2.397,4.892,1.096,2.658,0.044,0.981,-0.285,-1.923,0.183,0.519,100.000,74208.000,1.000
3.203,0.172,2.988,0.711,2.875,5.253,1.965,1.054,0.045,0.983,-0.282,-1.923,0.122,0.488,100.000,74209.000,1.000
4.183,0.207,3.823,1.470,3.948,5.868,3.540,0.273,0.045,0.982,-0.284,-1.892,0.214,0.366,100.000,74210.000,1.000
5.102,0.806,4.670,2.479,5.385,6.527,5.181,0.385,0.046,0.982,-0.286,-1.923,0.275,0.488,100.000,74211.000,1.000
5.641,1.879,5.313,3.400,6.873,7.128,6.524,1.319,0.047,0.979,-0.287,-1.892,0.275,0.397,100.000,74212.000,1.000
5.626,3.197,5.694,4.054,8.210,7.663,7.449,2.797,0.048,0.979,-0.284,-1.831,0.244,0.336,100.000,74213.000,1.000
4.993,4.367,5.826,4.410,9.244,8.001,7.852,4.306,0.048,0.978,-0.286,-1.892,0.366,0.305,100.000,74214.000,1.000
3.782,4.917,5.621,4.480,9.747,7.907,7.667,5.310,0.047,0.978,-0.284,-1.831,0.366,0.153,100.000,74215.000,1.000
2.081,4.470,4.804,4.167,9.364,7.148,6.823,5.436,0.047,0.977,-0.281,-1.801,0.519,0.275,100.000,74216.000,1.000
-0.061,2.851,3.065,3.262,7.741,5.526,5.156,4.536,0.046,0.977,-0.281,-1.770,0.549,0.275,100.000,74217.000,1.000
-2.533,0.249,0.429,1.679,4.916,3.099,2.718,2.786,0.047,0.976,-0.280,-1.434,0.519,0.214,100.000,74218.000,1.000
-5.044,-2.691,-2.557,-0.389,1.533,0.376,0.048,0.605,0.048,0.975,-0.283,-1.373,0.519,0.214,100.000,74219.000,1.000
-7.246,-5.152,-5.140,-2.654,-1.482,-1.929,-2.197,-1.682,0.047,0.974,-0.280,-1.190,0.549,0.336,100.000,74220.000,1.000
-8.945,-6.677,-6.852,-4.916,-3.510,-3.431,-3.819,-3.981,0.047,0.973,-0.281,-1.068,0.519,0.153,100.000,74221.000,1.000
-10.209,-7.387,-7.748,-7.013,-4.503,-4.325,-5.101,-6.225,0.048,0.972,-0.280,-0.885,0.549,0.244,100.000,74222.000,1.000
-11.264,-7.670,-8.219,-8.703,-4.774,-4.994,-6.194,-8.146,0.047,0.973,-0.280,-0.793,0.641,0.275,100.000,74223.000,1.000
-12.184,-7.704,-8.529,-9.605,-4.584,-5.412,-6.679,-9.169,0.047,0.972,-0.280,-0.580,0.610,0.336,100.000,74224.000,1.000
-12.625,-7.274,-8.459,-9.220,-3.943,-5.104,-5.910,-8.578,0.046,0.970,-0.282,-0.427,0.519,0.275,100.000,74225.000,1.000
-11.898,-5.939,-7.373,-7.117,-2.660,-3.623,-3.649,-5.895,0.044,0.971,-0.282,-0.214,0.427,0.336,100.000,74226.000,1.000
-9.358,-3.340,-4.646,-3.202,-0.501,-0.920,-0.242,-1.212,0.043,0.972,-0.279,0.000,0.519,0.397,100.000,74227.000,1.000
-4.866,0.518,-0.183,2.119,2.569,2.561,3.566,4.669,0.046,0.971,-0.282,0.183,0.397,0.366,100.000,74228.000,1.000
0.938,5.079,5.289,7.919,6.138,5.973,6.891,10.442,0.044,0.971,-0.282,0.336,0.305,0.427,100.000,74229.000,1.000
6.765,9.319,10.384,12.912,9.355,8.347,8.964,14.727,0.045,0.970,-0.284,0.488,0.305,0.427,100.000,74230.000,1.000
11.200,12.149,13.700,15.896,11.284,9.003,9.329,16.527,0.048,0.970,-0.282,0.732,0.427,0.488,100.000,74231.000,1.000
13.304,12.903,14.477,16.286,11.350,7.815,7.946,15.571,0.046,0.972,-0.281,0.977,0.305,0.519,100.000,74232.000,1.000
12.926,11.619,12.836,14.337,9.605,5.214,5.226,12.430,0.045,0.974,-0.283,0.977,0.214,0.641,100.000,74233.000,1.000
10.682,8.992,9.604,10.969,6.711,2.057,1.974,8.273,0.048,0.975,-0.280,1.160,0.183,0.580,100.000,74234.000,1.000
7.595,6.025,5.899,7.304,3.681,-0.654,-0.876,4.325,0.047,0.977,-0.280,1.190,0.122,0.671,100.000,74235.000,1.000
4.608,3.578,2.691,4.217,1.431,-2.222,-2.606,1.360,0.047,0.976,-0.281,1.282,0.153,0.580,100.000,74236.000,1.000
2.279,2.133,0.543,2.153,0.404,-2.544,-2.913,-0.332,0.045,0.974,-0.286,1.312,0.244,0.519,100.000,74237.000,1.000
0.842,1.809,-0.389,1.201,0.525,-1.993,-1.948,-0.693,0.047,0.977,-0.284,1.282,0.183,0.488,100.000,74238.000,1.000
0.380,2.413,-0.217,1.221,1.422,-1.128,-0.254,0.112,0.047,0.979,-0.287,1.282,0.183,0.580,100.000,74239.000,1.000
0.839,3.552,0.783,1.934,2.705,-0.358,1.479,1.594,0.049,0.981,-0.281,1.312,0.214,0.549,100.000,74240.000,1.000
2.036,4.882,2.283,3.011,4.177,0.364,2.770,3.120,0.050,0.981,-0.284,1.282,0.305,0.519,100.000,74241.000,1.000
3.749,6.197,3.997,4.153,5.791,1.432,3.475,4.158,0.050,0.979,-0.281,1.190,0.153,0.458,100.000,74242.000,1.000
5.664,7.268,5.587,5.076,7.380,3.056,3.627,4.365,0.051,0.976,-0.281,1.190,0.214,0.336,100.000,74243.000,1.000
7.242,7.766,6.615,5.475,8.515,4.949,3.321,3.663,0.050,0.975,-0.284,1.251,0.214,0.305,100.000,74244.000,1.000
7.881,7.464,6.757,5.162,8.751,6.507,2.699,2.298,0.050,0.975,-0.287,1.221,0.275,0.305,100.000,74245.000,1.000
7.334,6.496,6.116,4.229,7.972,7.190,1.915,0.719,0.049,0.976,-0.290,1.282,0.214,0.305,100.000,74246.000,1.000
5.904,5.334,5.187,3.027,6.502,6.783,1.110,-0.650,0.047,0.979,-0.291,1.251,0.214,0.275,100.000,74247.000,1.000
4.172,4.387,4.448,1.904,4.844,5.423,0.375,-1.612,0.048,0.981,-0.287,1.251,0.244,0.305,100.000,74248.000,1.000
2.578,3.656,4.000,0.975,3.342,3.465,-0.235,-2.223,0.048,0.983,-0.287,1.373,0.275,0.275,100.000,74249.000,1.000
1.327,2.883,3.642,0.205,2.108,1.337,-0.618,-2.570,0.047,0.982,-0.289,1.190,0.214,0.244,100.000,74250.000,1.000
0.471,1.858,3.118,-0.451,1.101,-0.608,-0.706,-2.617,0.046,0.982,-0.287,1.160,0.122,0.458,100.000,74251.000,1.000
-0.075,0.566,2.284,-1.089,0.188,-2.188,-0.620,-2.323,0.047,0.982,-0.285,0.977,0.061,0.366,100.000,74252.000,1.000
-0.406,-0.791,1.226,-1.811,-0.746,-3.308,-0.590,-1.822,0.044,0.985,-0.288,0.916,-0.031,0.397,100.000,74253.000,1.000
-0.478,-1.886,0.225,-2.606,-1.693,-3.882,-0.805,-1.418,0.042,0.987,-0.288,0.702,-0.061,0.092,100.000,74254.000,1.000
-0.254,-2.549,-0.526,-3.364,-2.616,-3.949,-1.391,-1.443,0.040,0.989,-0.286,0.671,-0.122,0.092,100.000,74255.000,1.000
0.068,-2.940,-1.112,-3.973,-3.515,-3.729,-2.327,-2.086,0.040,0.987,-0.285,0.336,-0.214,-0.153,100.000,74256.000,1.000
0.114,-3.314,-1.727,-4.351,-4.322,-3.397,-3.303,-3.280,0.041,0.988,-0.287,0.183,-0.397,-0.336,100.000,74257.000,1.000
-0.305,-3.626,-2.346,-4.421,-4.797,-2.871,-3.870,-4.660,0.039,0.988,-0.290,-0.031,-0.671,-0.275,100.000,74258.000,1.000
-0.919,-3.525,-2.626,-4.057,-4.658,-2.017,-3.774,-5.665,0.040,0.988,-0.286,-0.214,-0.793,-0.458,100.000,74259.000,1.000
-1.114,-2.743,-2.110,-3.096,-3.832,-1.010,-3.071,-5.772,0.040,0.986,-0.287,-0.458,-0.824,-0.641,100.000,74260.000,1.000
-0.413,-1.393,-0.615,-1.535,-2.594,-0.376,-2.021,-4.835,0.042,0.987,-0.288,-0.641,-0.946,-0.702,100.000,74261.000,1.000
1.135,0.074,1.502,0.254,-1.469,-0.623,-1.005,-3.288,0.042,0.987,-0.291,-0.824,-1.160,-0.671,100.000,74262.000,1.000
3.018,1.188,3.504,1.688,-0.904,-1.813,-0.329,-1.794,0.043,0.985,-0.289,-1.038,-1.129,-0.641,100.000,74263.000,1.000
4.644,1.777,4.749,2.391,-0.943,-3.417,0.006,-0.674,0.045,0.981,-0.288,-1.068,-1.373,-0.824,100.000,74264.000,1.000
5.633,1.973,5.052,2.380,-1.217,-4.552,0.286,0.214,0.044,0.981,-0.288,-1.129,-1.556,-0.732,100.000,74265.000,1.000
5.930,1.973,4.686,1.930,-1.248,-4.537,0.747,1.070,0.044,0.980,-0.288,-1.068,-1.556,-0.702,100.000,74266.000,1.000
5.747,1.893,4.159,1.378,-0.782,-3.367,1.231,1.767,0.046,0.979,-0.287,-1.160,-1.617,-0.580,100.000,74267.000,1.000
5.410,1.818,3.913,0.978,0.077,-1.707,1.256,1.913,0.044,0.981,-0.284,-1.190,-1.617,-0.427,100.000,74268.000,1.000
5.167,1.803,4.093,0.825,1.000,-0.381,0.524,1.229,0.043,0.980,-0.288,-1.312,-1.556,-0.366,100.000,74269.000,1.000
5.093,1.831,4.452,0.837,1.641,0.157,-0.698,-0.206,0.042,0.977,-0.286,-1.251,-1.617,-0.244,100.000,74270.000,1.000
5.129,1.866,4.531,0.815,1.776,0.012,-1.728,-1.955,0.046,0.975,-0.284,-1.282,-1.648,-0.183,100.000,74271.000,1.000
5.164,1.909,4.014,0.581,1.353,-0.365,-2.012,-3.442,0.045,0.975,-0.285,-1.251,-1.587,-0.427,100.000,74272.000,1.000
5.022,1.884,2.868,-0.002,0.343,-0.673,-1.710,-4.450,0.043,0.976,-0.285,-1.343,-1.556,-0.275,100.000,74273.000,1.000
4.472,1.550,1.188,-1.067,-1.401,-1.069,-1.698,-5.375,0.043,0.978,-0.285,-1.373,-1.495,-0.397,100.000,74274.000,1.000
3.468,0.748,-0.852,-2.610,-3.903,-1.888,-2.743,-6.738,0.044,0.978,-0.283,-1.495,-1.526,-0.397,100.000,74275.000,1.000
2.335,-0.313,-2.929,-4.306,-6.747,-3.148,-4.750,-8.534,0.046,0.978,-0.286,-1.526,-1.495,-0.427,100.000,74276.000,1.000
1.506,-1.222,-4.682,-5.619,-9.186,-4.473,-6.834,-10.197,0.045,0.977,-0.288,-1.556,-1.373,-0.458,100.000,74277.000,1.000
1.059,-1.810,-5.981,-6.197,-10.577,-5.448,-7.989,-11.043,0.046,0.976,-0.286,-1.587,-1.312,-0.488,100.000,74278.000,1.000
0.659,-2.248,-6.985,-6.112,-10.716,-5.916,-7.745,-10.701,0.046,0.974,-0.284,-1.526,-1.251,-0.397,100.000,74279.000,1.000
-0.045,-2.745,-7.879,-5.714,-9.838,-5.927,-6.354,-9.324,0.049,0.975,-0.288,-1.495,-1.129,-0.458,100.000,74280.000,1.000
-1.044,-3.317,-8.636,-5.393,-8.425,-5.594,-4.548,-7.538,0.049,0.975,-0.286,-1.495,-1.038,-0.427,100.000,74281.000,1.000
-1.986,-3.850,-9.085,-5.441,-7.006,-5.084,-3.150,-6.083,0.051,0.975,-0.287,-1.526,-0.977,-0.580,100.000,74282.000,1.000
-2.394,-4.154,-9.083,-5.868,-5.932,-4.558,-2.686,-5.377,0.051,0.971,-0.286,-1.404,-0.793,-0.366,100.000,74283.000,1.000
-1.869,-3.960,-8.538,-6.249,-5.229,-4.048,-3.107,-5.270,0.050,0.972,-0.287,-1.404,-0.641,-0.336,100.000,74284.000,1.000
-0.207,-2.957,-7.307,-5.889,-4.605,-3.427,-3.780,-5.131,0.049,0.975,-0.286,-1.251,-0.458,-0.214,100.000,74285.000,1.000
2.445,-1.019,-5.277,-4.292,-3.674,-2.516,-3.836,-4.252,0.049,0.975,-0.287,-1.251,-0.275,-0.244,100.000,74286.000,1.000
5.386,1.429,-2.726,-1.698,-2.363,-1.288,-2.756,-2.390,0.048,0.976,-0.289,-1.312,-0.122,-0.061,100.000,74287.000,1.000
7.560,3.465,-0.390,0.938,-1.079,0.022,-0.736,-0.009,0.051,0.978,-0.286,-1.190,-0.092,-0.031,100.000,74288.000,1.000
8.166,4.291,0.991,2.578,-0.404,0.935,1.407,2.015,0.052,0.979,-0.286,-1.129,0.061,0.031,100.000,74289.000,1.000
7.016,3.622,1.033,2.591,-0.761,0.923,2.585,2.846,0.050,0.976,-0.285,-1.099,0.336,0.153,100.000,74290.000,1.000
4.481,1.706,-0.230,0.961,-2.196,-0.139,2.030,2.083,0.048,0.978,-0.285,-1.038,0.427,0.183,100.000,74291.000,1.000
1.417,-0.700,-2.236,-1.565,-4.150,-1.610,-0.024,0.104,0.047,0.979,-0.285,-1.068,0.519,0.366,100.000,74292.000,1.000
-1.122,-2.639,-3.999,-3.732,-5.611,-2.416,-2.300,-2.015,0.048,0.981,-0.284,-0.946,0.610,0.244,100.000,74293.000,1.000
-2.465,-3.532,-4.670,-4.531,-5.757,-1.881,-3.310,-3.125,0.046,0.980,-0.285,-0.916,0.610,0.275,100.000,74294.000,1.000
-2.700,-3.430,-4.057,-3.764,-4.461,-0.166,-2.376,-2.571,0.045,0.980,-0.288,-0.854,0.702,0.305,100.000,74295.000,1.000
-2.435,-2.794,-2.639,-1.953,-2.294,1.961,-0.083,-0.447,0.046,0.983,-0.288,-0.946,0.793,0.336,100.000,74296.000,1.000
-2.252,-2.128,-1.159,0.117,-0.157,3.576,2.192,2.468,0.047,0.983,-0.285,-0.977,0.916,0.397,100.000,74297.000,1.000
-2.455,-1.745,-0.227,1.763,1.199,4.005,3.324,5.170,0.045,0.982,-0.283,-1.038,0.977,0.427,100.000,74298.000,1.000
-3.189,-1.766,-0.163,2.511,1.481,3.139,3.062,6.946,0.045,0.984,-0.282,-1.099,1.068,0.214,100.000,74299.000,1.000
-4.488,-2.153,-0.946,2.200,0.892,1.484,1.934,7.581,0.045,0.983,-0.284,-1.068,1.099,0.244,100.000,74300.000,1.000
-6.136,-2.705,-2.168,1.098,0.005,-0.139,0.841,7.361,0.045,0.983,-0.282,-1.221,1.129,0.305,100.000,74301.000,1.000
-7.642,-3.163,-3.193,-0.201,-0.568,-1.101,0.540,6.896,0.042,0.981,-0.286,-1.190,1.129,0.244,100.000,74302.000,1.000
-8.428,-3.361,-3.451,-1.059,-0.471,-1.189,1.241,6.776,0.044,0.983,-0.287,-1.282,1.038,0.122,100.000,74303.000,1.000
-8.027,-3.184,-2.611,-1.016,0.375,-0.475,2.593,7.187,0.042,0.983,-0.286,-1.282,1.068,0.092,100.000,74304.000,1.000
-6.300,-2.525,-0.665,0.073,1.843,0.791,3.949,7.726,0.041,0.980,-0.286,-1.282,1.068,0.031,100.000,74305.000,1.000
-3.600,-1.413,2.013,1.963,3.567,2.173,4.744,7.727,0.041,0.978,-0.283,-1.312,1.068,0.183,100.000,74306.000,1.000
-0.636,-0.055,4.808,4.117,5.068,3.195,4.840,6.891,0.042,0.976,-0.283,-1.343,0.977,0.183,100.000,74307.000,1.000
1.868,1.264,7.153,5.918,5.990,3.599,4.432,5.469,0.044,0.974,-0.285,-1.251,0.916,0.183,100.000,74308.000,1.000
3.453,2.272,8.679,6.920,6.257,3.445,3.685,3.952,0.046,0.974,-0.287,-1.007,0.916,0.153,100.000,74309.000,1.000
4.061,2.787,9.277,7.068,6.131,3.010,2.723,2.831,0.046,0.978,-0.289,-0.854,0.854,0.244,100.000,74310.000,1.000
3.975,2.834,9.154,6.762,6.126,2.626,1.886,2.520,0.046,0.980,-0.286,-0.732,0.793,0.397,100.000,74311.000,1.000
3.548,2.661,8.690,6.560,6.643,2.491,1.543,3.136,0.043,0.981,-0.286,-0.793,0.793,0.519,100.000,74312.000,1.000
2.944,2.509,8.141,6.749,7.607,2.543,1.739,4.349,0.045,0.978,-0.284,-0.732,0.763,0.610,100.000,74313.000,1.000
2.153,2.365,7.497,7.235,8.551,2.589,2.274,5.680,0.043,0.974,-0.284,-0.549,0.793,0.671,100.000,74314.000,1.000
1.173,1.996,6.601,7.694,9.023,2.520,3.015,6.879,0.044,0.974,-0.283,-0.397,0.732,0.641,100.000,74315.000,1.000
0.029,1.180,5.281,7.700,8.798,2.325,3.897,7.870,0.046,0.973,-0.281,-0.214,0.763,0.641,100.000,74316.000,1.000
-1.272,-0.107,3.436,6.893,7.861,1.991,4.772,8.543,0.043,0.976,-0.282,-0.122,0.671,0.580,100.000,74317.000,1.000
-2.648,-1.600,1.215,5.265,6.435,1.526,5.424,8.783,0.044,0.976,-0.286,-0.061,0.641,0.610,100.000,74318.000,1.000
-3.885,-2.835,-0.945,3.221,4.899,1.003,5.596,8.531,0.044,0.974,-0.285,0.031,0.519,0.488,100.000,74319.000,1.000
-4.756,-3.391,-2.533,1.348,3.578,0.518,5.033,7.694,0.043,0.974,-0.284,0.122,0.549,0.458,100.000,74320.000,1.000
-5.181,-3.111,-3.246,0.031,2.625,0.104,3.664,6.109,0.044,0.975,-0.282,0.061,0.397,0.305,100.000,74321.000,1.000
-5.280,-2.179,-3.132,-0.754,2.054,-0.300,1.769,3.731,0.045,0.977,-0.284,0.244,0.336,0.153,100.000,74322.000,1.000
-5.240,-0.984,-2.486,-1.232,1.837,-0.732,-0.079,0.943,0.046,0.976,-0.285,0.305,0.305,0.092,100.000,74323.000,1.000
-5.216,0.111,-1.683,-1.552,1.908,-1.104,-1.303,-1.538,0.046,0.979,-0.285,0.397,0.366,-0.092,100.000,74324.000,1.000
-5.389,0.830,-1.148,-1.842,2.041,-1.322,-1.681,-3.199,0.047,0.981,-0.287,0.427,0.397,-0.183,100.000,74325.000,1.000
-5.890,1.018,-1.211,-2.257,1.904,-1.362,-1.402,-4.025,0.049,0.981,-0.285,0.336,0.336,-0.153,100.000,74326.000,1.000
-6.584,0.754,-1.879,-2.820,1.325,-1.158,-0.786,-4.304,0.049,0.980,-0.285,0.427,0.275,-0.122,100.000,74327.000,1.000
-7.149,0.328,-2.871,-3.453,0.376,-0.625,-0.097,-4.394,0.048,0.980,-0.286,0.244,0.275,-0.061,100.000,74328.000,1.000
-7.401,-0.001,-3.877,-4.159,-0.763,0.154,0.407,-4.588,0.048,0.979,-0.285,0.275,0.244,-0.061,100.000,74329.000,1.000
-7.423,-0.210,-4.675,-4.995,-1.872,0.902,0.488,-4.962,0.047,0.980,-0.286,0.183,0.305,-0.061,100.000,74330.000,1.000
-7.416,-0.438,-5.074,-5.829,-2.637,1.354,0.116,-5.262,0.048,0.979,-0.285,0.183,0.305,-0.031,100.000,74331.000,1.000
-7.496,-0.827,-4.913,-6.315,-2.748,1.392,-0.453,-5.063,0.048,0.981,-0.283,0.244,0.275,-0.092,100.000,74332.000,1.000
-7.677,-1.440,-4.226,-6.188,-2.156,1.015,-0.847,-4.191,0.047,0.980,-0.282,0.183,0.305,0.000,100.000,74333.000,1.000
-7.958,-2.228,-3.334,-5.524,-1.167,0.346,-0.785,-2.934,0.047,0.982,-0.282,0.122,0.305,0.031,100.000,74334.000,1.000
-8.364,-2.978,-2.660,-4.665,-0.232,-0.339,-0.228,-1.809,0.045,0.981,-0.284,-0.031,0.244,-0.061,100.000,74335.000,1.000
-8.854,-3.374,-2.426,-3.912,0.326,-0.725,0.550,-1.202,0.044,0.980,-0.286,0.000,0.153,-0.153,100.000,74336.000,1.000
-9.160,-3.074,-2.445,-3.240,0.512,-0.567,1.153,-1.188,0.042,0.982,-0.287,-0.153,0.122,-0.214,100.000,74337.000,1.000
-8.771,-1.800,-2.204,-2.361,0.636,0.292,1.391,-1.591,0.041,0.983,-0.285,-0.244,0.000,-0.122,100.000,74338.000,1.000
-7.298,0.382,-1.279,-1.141,0.986,1.801,1.383,-2.163,0.039,0.984,-0.281,-0.275,-0.122,-0.305,100.000,74339.000,1.000
-4.920,2.835,0.250,0.137,1.514,3.568,1.374,-2.692,0.041,0.984,-0.282,-0.305,-0.214,-0.275,100.000,74340.000,1.000
-2.379,4.648,1.834,0.982,1.896,4.966,1.497,-2.996,0.041,0.983,-0.287,-0.427,-0.275,-0.305,100.000,74341.000,1.000
-0.568,5.121,2.805,1.004,1.766,5.368,1.626,-2.983,0.039,0.982,-0.285,-0.488,-0.427,-0.153,100.000,74342.000,1.000
-0.128,3.982,2.675,-0.012,0.841,4.393,1.422,-2.844,0.039,0.982,-0.283,-0.610,-0.549,-0.244,100.000,74343.000,1.000
-1.173,1.500,1.370,-2.022,-0.883,2.227,0.711,-2.984,0.041,0.983,-0.285,-0.641,-0.671,-0.305,100.000,74344.000,1.000
-3.146,-1.450,-0.612,-4.519,-2.890,-0.267,-0.173,-3.541,0.039,0.982,-0.283,-0.824,-0.732,-0.305,100.000,74345.000,1.000
-5.049,-3.757,-2.465,-6.630,-4.353,-2.061,-0.671,-4.137,0.040,0.984,-0.280,-0.916,-0.793,-0.336,100.000,74346.000,1.000
-6.091,-4.789,-3.656,-7.680,-4.771,-2.683,-0.573,-4.268,0.043,0.983,-0.280,-0.885,-0.885,-0.214,100.000,74347.000,1.000
-6.107,-4.711,-4.190,-7.596,-4.305,-2.396,-0.111,-3.800,0.044,0.981,-0.281,-0.916,-0.946,-0.397,100.000,74348.000,1.000
-5.399,-4.178,-4.359,-6.824,-3.621,-1.890,0.247,-3.088,0.043,0.981,-0.283,-0.977,-1.038,-0.305,100.000,74349.000,1.000
-4.328,-3.839,-4.432,-5.987,-3.514,-1.888,-0.070,-2.772,0.042,0.982,-0.284,-1.068,-0.946,-0.305,100.000,74350.000,1.000
-3.130,-4.041,-4.552,-5.551,-4.521,-2.776,-1.511,-3.355,0.042,0.982,-0.284,-1.221,-1.099,-0.336,100.000,74351.000,1.000
-1.961,-4.765,-4.785,-5.658,-6.643,-4.406,-4.069,-4.870,0.043,0.980,-0.284,-1.221,-1.160,-0.336,100.000,74352.000,1.000
-0.860,-5.677,-5.089,-6.071,-9.289,-6.178,-7.064,-6.792,0.043,0.979,-0.286,-1.282,-1.099,-0.427,100.000,74353.000,1.000
0.249,-6.323,-5.278,-6.247,-11.513,-7.369,-9.273,-8.198,0.044,0.977,-0.287,-1.190,-1.160,-0.458,100.000,74354.000,1.000
1.328,-6.494,-5.221,-5.737,-12.587,-7.511,-9.657,-8.314,0.043,0.976,-0.289,-1.068,-1.160,-0.427,100.000,74355.000,1.000
2.103,-6.356,-5.050,-4.583,-12.449,-6.680,-8.255,-7.154,0.046,0.976,-0.287,-1.038,-1.099,-0.366,100.000,74356.000,1.000
2.421,-6.061,-4.946,-3.208,-11.463,-5.376,-6.161,-5.388,0.045,0.974,-0.286,-1.007,-1.099,-0.305,100.000,74357.000,1.000
2.593,-5.384,-4.766,-1.929,-9.897,-4.062,-4.566,-3.616,0.046,0.973,-0.286,-0.763,-1.129,-0.336,100.000,74358.000,1.000
3.215,-4.022,-4.145,-0.747,-7.928,-3.020,-4.069,-2.100,0.046,0.972,-0.287,-0.671,-1.038,-0.427,100.000,74359.000,1.000
4.761,-2.005,-2.843,0.569,-5.833,-2.424,-4.557,-0.909,0.046,0.973,-0.288,-0.488,-0.946,-0.397,100.000,74360.000,1.000
7.269,0.340,-0.870,2.292,-3.824,-2.210,-5.301,0.054,0.046,0.972,-0.286,-0.275,-0.885,-0.275,100.000,74361.000,1.000
10.147,2.534,1.453,4.449,-1.963,-2.052,-5.418,0.968,0.047,0.971,-0.286,-0.122,-0.732,-0.397,100.000,74362.000,1.000
12.419,4.024,3.523,6.639,-0.369,-1.708,-4.538,1.839,0.047,0.971,-0.286,0.031,-0.702,-0.397,100.000,74363.000,1.000
13.301,4.360,4.736,8.194,0.693,-1.265,-3.008,2.413,0.047,0.973,-0.288,0.183,-0.641,-0.397,100.000,74364.000,1.000
12.545,3.424,4.808,8.536,0.990,-0.977,-1.499,2.406,0.047,0.972,-0.288,0.336,-0.549,-0.458,100.000,74365.000,1.000
10.458,1.528,3.908,7.543,0.515,-0.980,-0.474,1.796,0.046,0.971,-0.284,0.519,-0.397,-0.397,100.000,74366.000,1.000
7.772,-0.673,2.607,5.768,-0.400,-1.153,0.010,0.939,0.046,0.973,-0.288,0.702,-0.275,-0.366,100.000,74367.000,1.000
5.338,-2.453,1.640,4.241,-1.164,-1.218,0.105,0.386,0.046,0.974,-0.287,0.763,-0.183,-0.214,100.000,74368.000,1.000
3.699,-3.307,1.490,3.826,-1.269,-0.968,-0.057,0.562,0.045,0.976,-0.286,0.793,0.000,-0.244,100.000,74369.000,1.000
2.874,-3.117,2.072,4.634,-0.621,-0.454,-0.338,1.529,0.045,0.979,-0.284,0.885,0.031,-0.275,100.000,74370.000,1.000
2.471,-2.206,2.776,5.938,0.409,0.025,-0.496,2.972,0.046,0.979,-0.284,0.977,0.183,-0.336,100.000,74371.000,1.000
1.998,-1.229,2.863,6.676,1.209,0.198,-0.283,4.386,0.044,0.979,-0.286,0.916,0.275,-0.336,100.000,74372.000,1.000
1.209,-0.765,1.965,6.157,1.325,0.179,0.417,5.331,0.043,0.981,-0.285,0.854,0.244,-0.122,100.000,74373.000,1.000
0.244,-0.876,0.348,4.459,0.838,0.428,1.593,5.667,0.042,0.982,-0.284,0.885,0.275,-0.031,100.000,74374.000,1.000
-0.428,-1.069,-1.221,2.334,0.399,1.276,3.114,5.593,0.040,0.983,-0.284,0.854,0.366,0.000,100.000,74375.000,1.000
-0.283,-0.689,-1.886,0.772,0.780,2.545,4.664,5.405,0.041,0.984,-0.286,0.702,0.336,-0.031,100.000,74376.000,1.000
0.848,0.573,-1.186,0.457,2.309,3.616,5.779,5.213,0.041,0.986,-0.287,0.610,0.366,0.061,100.000,74377.000,1.000
2.614,2.476,0.692,1.437,4.650,3.854,6.076,4.940,0.040,0.986,-0.287,0.366,0.366,-0.031,100.000,74378.000,1.000
4.365,4.419,3.058,3.203,7.087,3.084,5.461,4.508,0.040,0.986,-0.286,0.366,0.305,-0.031,100.000,74379.000,1.000
5.495,5.790,5.103,5.027,8.949,1.729,4.187,3.942,0.037,0.986,-0.288,0.214,0.244,0.031,100.000,74380.000,1.000
5.649,6.232,6.227,6.236,9.849,0.486,2.769,3.291,0.038,0.986,-0.285,0.031,0.244,0.061,100.000,74381.000,1.000
4.807,5.711,6.188,6.374,9.697,-0.157,1.741,2.537,0.039,0.987,-0.283,-0.061,0.336,0.000,100.000,74382.000,1.000
3.287,4.513,5.163,5.400,8.692,-0.186,1.362,1.655,0.039,0.987,-0.283,-0.183,0.214,0.122,100.000,74383.000,1.000
1.632,3.240,3.687,3.758,7.322,0.017,1.521,0.754,0.040,0.984,-0.286,-0.336,0.153,0.061,100.000,74384.000,1.000
0.381,2.595,2.394,2.072,6.180,0.081,1.938,0.104,0.039,0.984,-0.284,-0.519,0.122,-0.031,100.000,74385.000,1.000
-0.166,2.986,1.698,0.729,5.625,0.036,2.431,-0.049,0.042,0.985,-0.285,-0.610,0.000,0.122,100.000,74386.000,1.000
0.003,4.256,1.698,-0.151,5.613,0.253,3.006,0.332,0.040,0.986,-0.286,-0.610,0.000,0.153,100.000,74387.000,1.000
0.710,5.715,2.216,-0.552,5.769,0.909,3.670,1.036,0.038,0.984,-0.284,-0.732,0.000,0.214,100.000,74388.000,1.000
1.635,6.485,2.848,-0.632,5.556,1.687,4.132,1.595,0.040,0.984,-0.284,-0.885,-0.092,0.092,100.000,74389.000,1.000
2.444,6.070,3.194,-0.638,4.631,2.206,3.956,1.550,0.040,0.983,-0.288,-0.946,-0.214,0.244,100.000,74390.000,1.000
3.053,4.705,3.206,-0.574,3.198,2.530,3.100,0.951,0.041,0.981,-0.286,-1.068,-0.183,0.244,100.000,74391.000,1.000
3.563,3.091,3.116,-0.228,1.888,3.013,2.076,0.372,0.043,0.981,-0.286,-1.221,-0.214,0.336,100.000,74392.000,1.000
3.960,1.899,3.102,0.489,1.281,3.844,1.545,0.371,0.040,0.978,-0.288,-1.190,-0.214,0.305,100.000,74393.000,1.000
4.142,1.561,3.258,1.506,1.616,4.921,1.826,1.073,0.043,0.976,-0.285,-1.251,-0.214,0.275,100.000,74394.000,1.000
4.184,2.225,3.703,2.703,2.710,5.903,2.559,2.089,0.043,0.976,-0.287,-1.221,-0.214,0.458,100.000,74395.000,1.000
4.339,3.677,4.481,3.850,3.944,6.270,2.801,2.721,0.044,0.977,-0.286,-1.221,-0.214,0.519,100.000,74396.000,1.000
4.854,5.454,5.484,4.635,4.604,5.639,1.730,2.431,0.045,0.974,-0.287,-1.190,-0.153,0.549,100.000,74397.000,1.000
5.878,7.153,6.583,4.929,4.454,4.235,-0.579,1.265,0.046,0.974,-0.286,-1.007,-0.153,0.458,100.000,74398.000,1.000
7.257,8.484,7.558,4.787,3.834,2.848,-3.139,-0.177,0.047,0.977,-0.287,-0.946,-0.061,0.427,100.000,74399.000,1.000
8.343,9.065,7.908,4.213,3.137,2.207,-4.814,-1.177,0.048,0.976,-0.286,-0.885,-0.031,0.519,100.000,74400.000,1.000
8.332,8.455,7.077,3.193,2.445,2.470,-5.085,-1.383,0.046,0.976,-0.286,-0.793,-0.031,0.427,100.000,74401.000,1.000
6.902,6.560,4.957,1.886,1.665,3.313,-4.226,-0.964,0.048,0.977,-0.285,-0.732,0.122,0.305,100.000,74402.000,1.000
4.395,3.822,1.993,0.558,0.740,4.275,-2.952,-0.407,0.048,0.977,-0.289,-0.763,0.153,0.458,100.000,74403.000,1.000
1.467,0.966,-1.121,-0.609,-0.313,4.896,-1.941,-0.201,0.048,0.975,-0.286,-0.854,0.092,0.458,100.000,74404.000,1.000
-1.211,-1.314,-3.695,-1.478,-1.400,4.790,-1.499,-0.580,0.047,0.975,-0.286,-0.793,0.183,0.336,100.000,74405.000,1.000
-3.060,-2.499,-5.200,-1.915,-2.308,3.880,-1.508,-1.433,0.048,0.976,-0.286,-0.641,0.244,0.275,100.000,74406.000,1.000
-3.793,-2.389,-5.465,-1.943,-2.790,2.476,-1.749,-2.469,0.049,0.978,-0.285,-0.671,0.366,0.183,100.000,74407.000,1.000
-3.603,-1.236,-4.792,-1.856,-2.774,0.998,-2.157,-3.441,0.050,0.978,-0.287,-0.519,0.397,0.275,100.000,74408.000,1.000
-2.951,0.314,-3.737,-1.963,-2.382,-0.219,-2.628,-4.107,0.049,0.978,-0.286,-0.458,0.641,0.275,100.000,74409.000,1.000
-2.120,1.582,-2.705,-2.218,-1.723,-0.850,-2.816,-4.125,0.048,0.978,-0.287,-0.427,0.671,0.214,100.000,74410.000,1.000
-1.151,2.150,-1.864,-2.297,-0.867,-0.673,-2.353,-3.248,0.049,0.978,-0.287,-0.458,0.671,0.275,100.000,74411.000,1.000
-0.177,1.873,-1.337,-1.996,-0.020,0.197,-1.207,-1.598,0.048,0.978,-0.286,-0.305,0.763,0.275,100.000,74412.000,1.000
0.529,0.912,-1.180,-1.349,0.575,1.373,0.323,0.480,0.047,0.977,-0.284,-0.366,0.793,0.244,100.000,74413.000,1.000
0.835,-0.251,-1.193,-0.495,0.901,2.415,1.801,2.638,0.046,0.977,-0.286,-0.427,0.793,0.275,100.000,74414.000,1.000
0.902,-1.095,-1.040,0.372,1.093,2.911,2.734,4.407,0.047,0.979,-0.287,-0.397,0.854,0.366,100.000,74415.000,1.000
0.995,-1.411,-0.593,0.972,1.167,2.550,2.742,5.138,0.047,0.980,-0.287,-0.183,0.702,0.305,100.000,74416.000,1.000
1.097,-1.394,-0.173,0.870,0.882,1.298,1.814,4.277,0.046,0.979,-0.285,-0.214,0.793,0.244,100.000,74417.000,1.000
0.842,-1.401,-0.350,-0.369,-0.120,-0.532,0.266,1.686,0.045,0.979,-0.284,-0.214,0.793,0.305,100.000,74418.000,1.000
-0.042,-1.607,-1.413,-2.692,-1.980,-2.482,-1.556,-2.164,0.045,0.980,-0.287,-0.275,0.732,0.336,100.000,74419.000,1.000
-1.386,-1.910,-3.084,-5.350,-4.363,-4.180,-3.352,-6.228,0.047,0.979,-0.287,-0.275,0.793,0.275,100.000,74420.000,1.000
-2.707,-2.074,-4.743,-7.401,-6.595,-5.395,-4.782,-9.268,0.045,0.980,-0.288,-0.214,0.732,0.244,100.000,74421.000,1.000
-3.612,-2.000,-5.914,-8.363,-8.132,-6.092,-5.621,-10.487,0.044,0.983,-0.286,-0.153,0.763,0.183,100.000,74422.000,1.000
-4.081,-1.932,-6.630,-8.440,-8.934,-6.467,-5.981,-10.016,0.044,0.981,-0.287,-0.183,0.671,0.061,100.000,74423.000,1.000
-4.389,-2.259,-7.280,-8.216,-9.344,-6.674,-6.096,-8.751,0.043,0.982,-0.287,-0.305,0.519,0.183,100.000,74424.000,1.000
-4.769,-3.035,-8.077,-8.093,-9.602,-6.519,-5.910,-7.568,0.040,0.985,-0.285,-0.427,0.488,0.122,100.000,74425.000,1.000
-5.201,-3.861,-8.773,-7.992,-9.609,-5.638,-5.066,-6.716,0.042,0.983,-0.284,-0.427,0.397,0.092,100.000,74426.000,1.000
-5.503,-4.215,-8.907,-7.594,-9.122,-3.940,-3.337,-5.945,0.041,0.983,-0.282,-0.519,0.244,-0.092,100.000,74427.000,1.000
-5.526,-3.766,-8.177,-6.716,-7.967,-1.724,-0.934,-4.926,0.043,0.983,-0.281,-0.549,0.214,-0.183,100.000,74428.000,1.000
-5.261,-2.499,-6.581,-5.406,-6.085,0.566,1.566,-3.450,0.042,0.984,-0.282,-0.580,0.214,-0.122,100.000,74429.000,1.000
-4.902,-0.823,-4.462,-3.892,-3.636,2.455,3.516,-1.516,0.042,0.983,-0.285,-0.732,0.031,-0.122,100.000,74430.000,1.000
-4.762,0.480,-2.413,-2.500,-1.094,3.436,4.512,0.593,0.041,0.982,-0.282,-0.763,-0.183,-0.244,100.000,74431.000,1.000
-4.995,0.755,-0.920,-1.419,1.000,3.265,4.634,2.451,0.041,0.981,-0.283,-0.885,-0.244,-0.366,100.000,74432.000,1.000
-5.393,-0.047,-0.046,-0.532,2.370,2.234,4.302,3.765,0.039,0.980,-0.285,-0.916,-0.366,-0.305,100.000,74433.000,1.000
-5.543,-1.399,0.472,0.389,3.015,0.981,3.885,4.502,0.040,0.980,-0.282,-1.068,-0.458,-0.397,100.000,74434.000,1.000
-5.202,-2.582,0.895,1.338,3.091,0.088,3.543,4.808,0.040,0.981,-0.282,-1.129,-0.641,-0.305,100.000,74435.000,1.000
-4.427,-3.020,1.397,2.097,2.920,-0.114,3.404,4.938,0.040,0.981,-0.284,-1.312,-0.732,-0.275,100.000,74436.000,1.000
-3.343,-2.438,2.211,2.594,2.998,0.456,3.653,5.243,0.040,0.981,-0.281,-1.221,-0.885,-0.244,100.000,74437.000,1.000
-2.021,-0.947,3.544,2.967,3.722,1.618,4.383,6.031,0.040,0.979,-0.283,-1.160,-1.007,-0.305,100.000,74438.000,1.000
-0.684,0.911,5.246,3.221,5.045,2.938,5.446,7.288,0.041,0.977,-0.285,-1.160,-1.068,-0.458,100.000,74439.000,1.000
0.171,2.311,6.699,3.097,6.455,3.909,6.464,8.464,0.041,0.977,-0.285,-1.129,-1.068,-0.488,100.000,74440.000,1.000
-0.036,2.471,7.118,2.240,7.252,4.109,6.858,8.619,0.042,0.978,-0.283,-1.251,-1.160,-0.397,100.000,74441.000,1.000
-1.627,1.048,6.009,0.468,6.907,3.250,6.017,7.025,0.043,0.978,-0.284,-1.160,-1.129,-0.366,100.000,74442.000,1.000
-4.410,-1.674,3.457,-2.028,5.343,1.355,3.789,3.788,0.044,0.975,-0.285,-1.190,-1.190,-0.427,100.000,74443.000,1.000
-7.679,-4.970,0.060,-4.717,2.947,-1.125,0.799,-0.153,0.045,0.976,-0.283,-1.068,-1.343,-0.305,100.000,74444.000,1.000
-10.472,-7.963,-3.355,-6.949,0.359,-3.484,-1.827,-3.527,0.044,0.975,-0.283,-1.038,-1.251,-0.244,100.000,74445.000,1.000
-11.867,-9.802,-5.916,-8.109,-1.722,-4.990,-3.066,-5.200,0.045,0.975,-0.289,-0.854,-0.977,-0.305,100.000,74446.000,1.000
-11.312,-9.926,-6.905,-7.706,-2.699,-5.119,-2.487,-4.545,0.047,0.974,-0.287,-0.824,-1.068,-0.183,100.000,74447.000,1.000
-8.837,-8.362,-6.018,-5.551,-2.253,-3.826,-0.317,-1.662,0.047,0.974,-0.286,-0.732,-1.068,-0.122,100.000,74448.000,1.000
-4.958,-5.631,-3.481,-1.930,-0.448,-1.564,2.810,2.676,0.047,0.972,-0.287,-0.610,-0.977,-0.153,100.000,74449.000,1.000
-0.424,-2.389,0.033,2.370,2.263,0.983,6.061,7.282,0.047,0.974,-0.285,-0.519,-0.885,-0.031,100.000,74450.000,1.000
3.965,0.787,3.627,6.349,5.181,3.226,8.621,10.943,0.048,0.975,-0.285,-0.427,-0.702,-0.092,100.000,74451.000,1.000
7.457,3.376,6.441,9.162,7.619,4.822,9.934,12.825,0.050,0.975,-0.288,-0.427,-0.549,-0.092,100.000,74452.000,1.000
9.413,4.823,7.825,10.268,9.016,5.603,9.730,12.562,0.050,0.975,-0.288,-0.305,-0.549,-0.183,100.000,74453.000,1.000
9.530,4.733,7.529,9.520,8.994,5.451,7.995,10.240,0.049,0.975,-0.289,-0.214,-0.427,-0.153,100.000,74454.000,1.000
8.081,3.251,5.868,7.279,7.516,4.273,4.999,6.499,0.048,0.976,-0.286,-0.061,-0.397,-0.153,100.000,74455.000,1.000
5.780,1.090,3.540,4.277,4.950,2.042,1.250,2.381,0.047,0.975,-0.284,-0.061,-0.305,0.031,100.000,74456.000,1.000
3.403,-0.875,1.243,1.329,1.958,-0.992,-2.498,-1.072,0.046,0.978,-0.284,0.000,-0.153,-0.061,100.000,74457.000,1.000
1.496,-2.025,-0.560,-0.890,-0.722,-4.165,-5.337,-3.181,0.046,0.980,-0.287,0.031,-0.031,-0.244,100.000,74458.000,1.000
0.221,-2.235,-1.735,-2.069,-2.537,-6.664,-6.619,-3.847,0.045,0.981,-0.285,0.122,0.061,-0.275,100.000,74459.000,1.000
-0.627,-1.878,-2.453,-2.328,-3.294,-7.948,-6.335,-3.517,0.045,0.980,-0.286,0.061,0.153,-0.214,100.000,74460.000,1.000
-1.432,-1.542,-3.033,-2.074,-3.193,-7.961,-5.067,-2.845,0.046,0.982,-0.287,-0.031,0.244,-0.183,100.000,74461.000,1.000
-2.480,-1.652,-3.703,-1.810,-2.726,-7.049,-3.579,-2.353,0.045,0.982,-0.285,-0.092,0.275,-0.275,100.000,74462.000,1.000
-3.760,-2.265,-4.456,-1.952,-2.473,-5.762,-2.459,-2.344,0.046,0.979,-0.286,-0.183,0.305,-0.153,100.000,74463.000,1.000
-4.935,-3.085,-5.043,-2.552,-2.789,-4.638,-2.008,-2.893,0.045,0.976,-0.287,-0.244,0.275,-0.122,100.000,74464.000,1.000
-5.522,-3.626,-5.076,-3.197,-3.561,-3.936,-2.242,-3.762,0.044,0.975,-0.287,-0.244,0.458,-0.183,100.000,74465.000,1.000
-5.220,-3.520,-4.278,-3.298,-4.332,-3.518,-2.951,-4.529,0.041,0.975,-0.287,-0.092,0.336,-0.275,100.000,74466.000,1.000
-4.074,-2.737,-2.716,-2.530,-4.688,-3.073,-3.798,-4.919,0.042,0.978,-0.287,0.031,0.275,-0.183,100.000,74467.000,1.000
-2.366,-1.503,-0.774,-1.019,-4.505,-2.416,-4.391,-4.851,0.043,0.980,-0.286,0.092,0.244,-0.061,100.000,74468.000,1.000
-0.473,-0.087,1.043,0.776,-3.930,-1.559,-4.393,-4.263,0.043,0.985,-0.285,0.000,0.275,-0.031,100.000,74469.000,1.000
1.174,1.316,2.320,2.285,-3.220,-0.581,-3.720,-3.221,0.043,0.982,-0.287,-0.092,0.244,-0.031,100.000,74470.000,1.000
2.248,2.643,2.939,3.078,-2.508,0.512,-2.591,-2.016,0.042,0.979,-0.288,-0.183,0.275,0.122,100.000,74471.000,1.000
2.762,3.976,3.124,3.019,-1.745,1.720,-1.407,-1.009,0.041,0.981,-0.287,-0.153,0.275,0.244,100.000,74472.000,1.000
3.034,5.354,3.243,2.259,-0.935,2.847,-0.610,-0.573,0.040,0.982,-0.288,-0.092,0.244,0.214,100.000,74473.000,1.000
3.411,6.586,3.590,1.181,-0.248,3.572,-0.418,-0.991,0.039,0.985,-0.284,-0.061,0.122,0.305,100.000,74474.000,1.000
4.066,7.340,4.299,0.336,0.186,3.758,-0.555,-2.101,0.037,0.986,-0.285,-0.122,0.000,0.305,100.000,74475.000,1.000
4.961,7.348,5.260,0.188,0.411,3.520,-0.483,-3.257,0.035,0.987,-0.284,-0.427,-0.031,0.092,100.000,74476.000,1.000
5.945,6.542,6.107,0.851,0.545,3.029,-0.003,-3.790,0.035,0.989,-0.282,-0.580,-0.244,0.000,100.000,74477.000,1.000
6.826,5.067,6.396,2.073,0.650,2.355,0.588,-3.332,0.033,0.989,-0.282,-0.793,-0.244,0.031,100.000,74478.000,1.000
7.355,3.189,5.842,3.415,0.708,1.530,0.972,-1.819,0.037,0.989,-0.283,-0.916,-0.427,-0.031,100.000,74479.000,1.000
7.263,1.192,4.477,4.453,0.655,0.670,1.167,0.486,0.037,0.988,-0.283,-1.068,-0.549,-0.092,100.000,74480.000,1.000
6.383,-0.696,2.595,4.895,0.416,-0.033,1.351,2.929,0.036,0.986,-0.282,-1.068,-0.763,-0.214,100.000,74481.000,1.000
4.794,-2.286,0.634,4.711,-0.005,-0.387,1.651,4.752,0.039,0.984,-0.284,-1.221,-0.885,-0.214,100.000,74482.000,1.000
2.846,-3.445,-0.970,4.137,-0.497,-0.287,2.120,5.532,0.039,0.983,-0.289,-1.282,-1.068,-0.275,100.000,74483.000,1.000
0.947,-4.189,-1.977,3.404,-0.989,0.096,2.584,5.248,0.039,0.981,-0.287,-1.312,-1.038,-0.244,100.000,74484.000,1.000
-0.558,-4.563,-2.311,2.626,-1.445,0.352,2.661,4.171,0.040,0.978,-0.286,-1.373,-1.160,-0.122,100.000,74485.000,1.000
-1.339,-4.468,-1.897,1.973,-1.715,0.167,2.129,2.820,0.041,0.976,-0.284,-1.312,-1.221,-0.153,100.000,74486.000,1.000
-1.289,-3.868,-0.819,1.598,-1.693,-0.540,1.122,1.678,0.042,0.977,-0.283,-1.221,-1.160,-0.183,100.000,74487.000,1.000
-0.716,-3.018,0.508,1.433,-1.509,-1.661,-0.017,0.909,0.041,0.976,-0.282,-1.221,-1.282,-0.244,100.000,74488.000,1.000
-0.100,-2.278,1.549,1.317,-1.386,-2.859,-0.966,0.417,0.042,0.975,-0.281,-1.160,-1.373,-0.336,100.000,74489.000,1.000
0.261,-1.885,1.942,1.172,-1.504,-3.698,-1.665,-0.019,0.041,0.975,-0.283,-1.068,-1.312,-0.122,100.000,74490.000,1.000
0.363,-1.890,1.634,1.000,-1.994,-3.920,-2.347,-0.649,0.041,0.978,-0.283,-1.007,-1.312,-0.092,100.000,74491.000,1.000
0.450,-2.086,0.953,0.931,-2.785,-3.494,-3.154,-1.502,0.044,0.979,-0.284,-1.038,-1.343,0.000,100.000,74492.000,1.000
0.777,-2.048,0.439,1.221,-3.504,-2.508,-3.863,-2.261,0.041,0.977,-0.280,-1.068,-1.312,-0.153,100.000,74493.000,1.000
1.350,-1.461,0.427,2.013,-3.707,-1.209,-4.112,-2.531,0.041,0.978,-0.280,-0.916,-1.404,-0.244,100.000,74494.000,1.000
1.905,-0.430,0.779,3.067,-3.203,0.034,-3.678,-2.123,0.040,0.978,-0.281,-0.916,-1.373,-0.275,100.000,74495.000,1.000
2.066,0.559,0.984,3.760,-2.196,0.899,-2.532,-1.134,0.042,0.976,-0.282,-0.824,-1.343,-0.275,100.000,74496.000,1.000
1.536,0.942,0.533,3.491,-1.208,1.124,-0.963,0.066,0.040,0.976,-0.284,-0.793,-1.312,-0.214,100.000,74497.000,1.000
0.313,0.499,-0.698,2.138,-0.744,0.545,0.372,0.946,0.042,0.976,-0.282,-0.854,-1.343,-0.183,100.000,74498.000,1.000
-1.283,-0.481,-2.426,0.076,-1.004,-0.698,0.744,1.058,0.043,0.979,-0.279,-0.885,-1.221,-0.122,100.000,74499.000,1.000
-2.794,-1.497,-4.199,-2.066,-1.848,-2.129,-0.110,0.264,0.043,0.978,-0.281,-0.763,-1.190,-0.122,100.000,74500.000,1.000
-3.741,-2.108,-5.514,-3.613,-2.860,-3.168,-1.681,-1.128,0.045,0.976,-0.282,-0.763,-1.221,-0.153,100.000,74501.000,1.000
-3.678,-1.957,-5.833,-4.037,-3.429,-3.342,-2.991,-2.426,0.046,0.976,-0.284,-0.763,-1.038,-0.122,100.000,74502.000,1.000
-2.389,-0.875,-4.793,-3.162,-3.010,-2.463,-3.269,-2.911,0.048,0.975,-0.282,-0.732,-1.068,-0.122,100.000,74503.000,1.000
-0.147,0.820,-2.568,-1.300,-1.529,-0.853,-2.467,-2.320,0.047,0.974,-0.281,-0.519,-0.977,0.000,100.000,74504.000,1.000
2.264,2.311,0.004,0.736,0.408,0.693,-1.235,-1.078,0.046,0.972,-0.281,-0.458,-0.824,0.214,100.000,74505.000,1.000
3.848,2.747,1.770,1.942,1.849,1.444,-0.344,0.041,0.046,0.976,-0.281,-0.366,-0.702,0.305,100.000,74506.000,1.000
3.988,1.919,2.024,1.808,2.248,1.348,-0.025,0.601,0.046,0.975,-0.282,-0.305,-0.580,0.275,100.000,74507.000,1.000
2.915,0.516,1.029,0.768,1.931,0.997,0.129,0.877,0.045,0.975,-0.283,-0.244,-0.397,0.397,100.000,74508.000,1.000
1.489,-0.377,-0.250,-0.179,1.705,0.979,0.590,1.423,0.043,0.978,-0.283,-0.122,-0.458,0.610,100.000,74509.000,1.000
0.519,-0.075,-0.905,-0.287,2.119,1.405,1.403,2.398,0.045,0.977,-0.281,0.000,-0.336,0.732,100.000,74510.000,1.000
0.374,1.369,-0.547,0.617,3.192,2.017,2.336,3.530,0.044,0.978,-0.280,0.061,-0.397,0.732,100.000,74511.000,1.000
1.043,3.341,0.675,2.278,4.564,2.507,3.156,4.463,0.043,0.979,-0.280,0.061,-0.336,0.671,100.000,74512.000,1.000
2.256,4.973,2.195,4.114,5.685,2.641,3.585,4.781,0.044,0.980,-0.284,-0.031,-0.458,0.732,100.000,74513.000,1.000
3.591,5.521,3.290,5.346,6.032,2.322,3.333,4.072,0.041,0.979,-0.283,-0.031,-0.427,0.763,100.000,74514.000,1.000
4.709,4.854,3.539,5.466,5.431,1.668,2.418,2.422,0.042,0.980,-0.281,0.061,-0.397,0.763,100.000,74515.000,1.000
5.607,3.607,3.205,4.754,4.330,1.019,1.340,0.609,0.041,0.980,-0.284,-0.061,-0.397,1.007,100.000,74516.000,1.000
6.592,2.748,3.094,4.134,3.662,0.835,0.864,-0.390,0.040,0.981,-0.283,-0.183,-0.458,0.916,100.000,74517.000,1.000
7.876,2.907,3.854,4.372,4.183,1.422,1.525,-0.016,0.039,0.984,-0.280,-0.244,-0.671,0.854,100.000,74518.000,1.000
9.216,3.996,5.364,5.444,5.795,2.638,3.230,1.625,0.039,0.985,-0.283,-0.153,-0.702,0.763,100.000,74519.000,1.000
10.043,5.359,6.816,6.676,7.567,3.940,5.315,3.874,0.037,0.987,-0.281,-0.336,-0.763,0.671,100.000,74520.000,1.000
9.858,6.164,7.262,7.257,8.309,4.709,6.917,5.776,0.035,0.988,-0.279,-0.488,-0.977,0.671,100.000,74521.000,1.000
8.419,5.768,6.089,6.573,7.165,4.571,7.316,6.387,0.035,0.987,-0.281,-0.641,-1.068,0.671,100.000,74522.000,1.000
5.886,4.116,3.411,4.478,4.123,3.657,6.234,5.239,0.036,0.985,-0.283,-0.793,-1.343,0.488,100.000,74523.000,1.000
2.971,1.911,0.151,1.550,0.167,2.559,3.980,2.718,0.037,0.983,-0.282,-0.824,-1.495,0.519,100.000,74524.000,1.000
0.559,0.109,-2.582,-1.247,-3.332,1.846,1.189,-0.173,0.036,0.981,-0.284,-0.946,-1.526,0.488,100.000,74525.000,1.000
-1.016,-0.831,-4.316,-3.309,-5.485,1.631,-1.528,-2.509,0.037,0.980,-0.281,-1.007,-1.648,0.427,100.000,74526.000,1.000
-2.147,-1.109,-5.296,-4.725,-6.221,1.588,-3.712,-3.886,0.040,0.974,-0.283,-0.946,-1.770,0.397,100.000,74527.000,1.000
-3.421,-1.195,-5.926,-5.922,-6.048,1.259,-5.117,-4.406,0.044,0.972,-0.287,-0.885,-1.892,0.275,100.000,74528.000,1.000
-4.999,-1.337,-6.266,-7.113,-5.531,0.566,-5.590,-4.379,0.049,0.973,-0.290,-0.793,-1.953,0.214,100.000,74529.000,1.000
-6.431,-1.391,-5.990,-8.052,-4.880,0.021,-4.963,-4.010,0.051,0.975,-0.287,-0.580,-1.953,0.092,100.000,74530.000,1.000
-7.054,-1.076,-4.789,-8.284,-4.071,0.091,-3.480,-3.431,0.052,0.981,-0.291,-0.549,-1.831,0.122,100.000,74531.000,1.000
-6.566,-0.303,-2.787,-7.605,-3.178,0.508,-2.089,-2.866,0.051,0.984,-0.289,-0.580,-1.678,0.183,100.000,74532.000,1.000
-5.300,0.715,-0.600,-6.301,-2.405,0.634,-1.749,-2.528,0.051,0.980,-0.290,-0.488,-1.587,0.122,100.000,74533.000,1.000
-3.968,1.546,1.045,-4.911,-1.826,0.282,-2.530,-2.413,0.050,0.977,-0.290,-0.641,-1.465,0.031,100.000,74534.000,1.000
-3.063,1.851,1.877,-3.676,-1.177,-0.148,-3.599,-2.288,0.052,0.975,-0.290,-0.549,-1.373,-0.122,100.000,74535.000,1.000
-2.570,1.672,2.219,-2.452,-0.023,-0.160,-3.983,-1.944,0.053,0.973,-0.292,-0.397,-1.190,-0.244,100.000,74536.000,1.000
-2.246,1.321,2.522,-1.199,1.714,0.382,-3.267,-1.387,0.052,0.974,-0.288,-0.366,-1.007,-0.305,100.000,74537.000,1.000
-1.948,1.014,2.865,-0.252,3.512,1.177,-1.704,-0.760,0.050,0.977,-0.288,-0.305,-0.824,-0.366,100.000,74538.000,1.000
-1.698,0.756,2.973,-0.084,4.625,1.744,0.112,-0.265,0.047,0.976,-0.287,-0.244,-0.610,-0.458,100.000,74539.000,1.000
-1.567,0.541,2.565,-0.931,4.638,1.828,1.582,-0.193,0.045,0.975,-0.287,-0.305,-0.519,-0.641,100.000,74540.000,1.000
-1.579,0.420,1.576,-2.632,3.642,1.527,2.335,-0.797,0.045,0.975,-0.287,-0.305,-0.488,-0.854,100.000,74541.000,1.000
-1.756,0.337,0.105,-4.721,1.993,1.086,2.353,-2.031,0.045,0.976,-0.285,-0.366,-0.427,-1.007,100.000,74542.000,1.000
-2.212,0.074,-1.708,-6.674,0.027,0.598,1.816,-3.577,0.044,0.976,-0.286,-0.305,-0.336,-1.129,100.000,74543.000,1.000
-3.094,-0.550,-3.675,-8.139,-2.013,-0.069,0.875,-5.091,0.047,0.977,-0.285,-0.366,-0.183,-1.099,100.000,74544.000,1.000
-4.323,-1.439,-5.433,-8.954,-3.797,-1.005,-0.232,-6.234,0.045,0.978,-0.289,-0.397,-0.092,-1.129,100.000,74545.000,1.000
-5.466,-2.197,-6.419,-9.047,-4.844,-2.036,-1.142,-6.695,0.046,0.978,-0.290,-0.458,0.031,-1.160,100.000,74546.000,1.000
-6.057,-2.464,-6.251,-8.488,-4.822,-2.886,-1.761,-6.476,0.045,0.979,-0.291,-0.458,0.061,-0.916,100.000,74547.000,1.000
-5.932,-2.210,-5.022,-7.437,-3.763,-3.347,-2.270,-5.816,0.044,0.978,-0.290,-0.397,0.061,-0.977,100.000,74548.000,1.000
-5.134,-1.621,-3.089,-5.927,-1.889,-3.238,-2.656,-4.821,0.045,0.978,-0.289,-0.427,0.061,-0.885,100.000,74549.000,1.000
-3.820,-0.907,-0.866,-3.998,0.440,-2.471,-2.699,-3.529,0.044,0.980,-0.287,-0.488,0.183,-0.916,100.000,74550.000,1.000
-2.400,-0.272,1.118,-2.059,2.621,-1.233,-2.321,-2.167,0.042,0.980,-0.285,-0.397,0.275,-0.732,100.000,74551.000,1.000
-1.383,0.175,2.330,-0.777,4.017,0.092,-1.623,-1.062,0.040,0.983,-0.286,-0.427,0.244,-0.732,100.000,74552.000,1.000
-0.962,0.511,2.565,-0.549,4.360,1.203,-0.751,-0.397,0.036,0.986,-0.286,-0.549,0.244,-0.671,100.000,74553.000,1.000
-1.004,0.836,2.006,-1.286,3.829,1.921,0.094,-0.220,0.038,0.984,-0.287,-0.671,0.244,-0.519,100.000,74554.000,1.000
-1.353,1.090,0.986,-2.589,2.780,2.055,0.635,-0.532,0.037,0.986,-0.286,-0.763,0.244,-0.488,100.000,74555.000,1.000
-1.932,1.121,-0.155,-3.898,1.556,1.473,0.697,-1.185,0.037,0.985,-0.287,-0.824,0.153,-0.305,100.000,74556.000,1.000
-2.608,0.881,-1.051,-4.574,0.476,0.344,0.413,-1.766,0.039,0.986,-0.286,-0.854,0.122,-0.244,100.000,74557.000,1.000
-3.158,0.440,-1.410,-4.177,-0.229,-0.848,0.146,-1.817,0.037,0.985,-0.285,-0.916,0.092,-0.275,100.000,74558.000,1.000
-3.398,-0.195,-1.256,-2.792,-0.570,-1.689,0.134,-1.211,0.037,0.985,-0.284,-1.068,0.000,-0.275,100.000,74559.000,1.000
-3.290,-1.128,-0.952,-0.989,-0.816,-2.256,0.264,-0.170,0.037,0.984,-0.285,-1.221,-0.153,-0.122,100.000,74560.000,1.000
-2.905,-2.367,-0.878,0.635,-1.223,-2.881,0.269,1.064,0.036,0.984,-0.285,-1.373,-0.183,-0.092,100.000,74561.000,1.000
-2.386,-3.749,-1.171,1.762,-1.836,-3.635,-0.024,2.316,0.035,0.983,-0.284,-1.495,-0.275,-0.031,100.000,74562.000,1.000
-1.929,-4.999,-1.737,2.398,-2.537,-4.304,-0.616,3.316,0.035,0.981,-0.285,-1.617,-0.305,0.000,100.000,74563.000,1.000
-1.705,-5.759,-2.281,2.829,-3.102,-4.678,-1.217,3.815,0.038,0.984,-0.283,-1.678,-0.305,0.061,100.000,74564.000,1.000
-1.857,-5.789,-2.484,3.315,-3.333,-4.718,-1.398,3.832,0.040,0.984,-0.282,-1.617,-0.427,0.000,100.000,74565.000,1.000
-2.480,-5.259,-2.304,3.737,-3.308,-4.642,-1.137,3.544,0.037,0.984,-0.283,-1.740,-0.458,0.061,100.000,74566.000,1.000
-3.329,-4.543,-1.885,3.860,-3.286,-4.732,-0.879,3.089,0.036,0.981,-0.284,-1.831,-0.488,0.000,100.000,74567.000,1.000
-3.819,-3.781,-1.260,3.751,-3.331,-4.999,-0.840,2.692,0.037,0.980,-0.286,-1.892,-0.519,-0.183,100.000,74568.000,1.000
-3.656,-2.963,-0.497,3.569,-3.338,-5.147,-0.717,2.650,0.039,0.981,-0.285,-1.923,-0.580,-0.092,100.000,74569.000,1.000
-3.179,-2.205,0.100,3.243,-3.285,-4.857,-0.212,2.962,0.038,0.981,-0.283,-1.892,-0.580,-0.092,100.000,74570.000,1.000
-2.950,-1.746,0.177,2.623,-3.209,-4.016,0.586,3.149,0.039,0.980,-0.283,-1.862,-0.671,-0.275,100.000,74571.000,1.000
-3.260,-1.844,-0.418,1.744,-3.104,-2.797,1.351,2.527,0.038,0.978,-0.283,-1.892,-0.549,-0.305,100.000,74572.000,1.000
-3.979,-2.625,-1.534,0.872,-2.923,-1.624,1.740,0.785,0.038,0.976,-0.284,-1.862,-0.610,-0.244,100.000,74573.000,1.000
-4.629,-3.867,-2.701,0.410,-2.603,-0.995,1.433,-1.603,0.040,0.974,-0.283,-1.862,-0.671,-0.214,100.000,74574.000,1.000
-4.664,-5.009,-3.331,0.678,-2.099,-1.119,0.297,-3.592,0.040,0.976,-0.282,-1.770,-0.671,-0.153,100.000,74575.000,1.000
-3.866,-5.492,-3.124,1.614,-1.462,-1.662,-1.307,-4.334,0.037,0.977,-0.280,-1.617,-0.610,-0.244,100.000,74576.000,1.000
-2.553,-5.167,-2.356,2.648,-0.920,-1.998,-2.626,-3.802,0.038,0.976,-0.280,-1.373,-0.610,-0.336,100.000,74577.000,1.000
-1.407,-4.441,-1.734,2.977,-0.857,-1.829,-3.195,-2.719,0.037,0.976,-0.280,-1.404,-0.519,-0.397,100.000,74578.000,1.000
-1.047,-3.992,-1.943,2.078,-1.608,-1.460,-3.298,-1.991,0.040,0.975,-0.281,-1.251,-0.641,-0.458,100.000,74579.000,1.000
-1.670,-4.276,-3.263,0.030,-3.201,-1.361,-3.538,-2.150,0.041,0.974,-0.284,-1.099,-0.580,-0.336,100.000,74580.000,1.000
-2.980,-5.208,-5.427,-2.565,-5.227,-1.574,-4.078,-3.024,0.040,0.974,-0.282,-0.916,-0.488,-0.305,100.000,74581.000,1.000
-4.370,-6.178,-7.709,-4.900,-6.952,-1.650,-4.464,-3.874,0.042,0.975,-0.281,-0.824,-0.397,-0.488,100.000,74582.000,1.000
-5.228,-6.434,-9.299,-6.354,-7.687,-1.077,-4.102,-4.032,0.041,0.976,-0.281,-0.702,-0.397,-0.366,100.000,74583.000,1.000
-5.217,-5.601,-9.795,-6.750,-7.223,0.272,-2.858,-3.503,0.038,0.978,-0.280,-0.549,-0.305,-0.275,100.000,74584.000,1.000
-4.337,-3.902,-9.351,-6.331,-5.945,1.910,-1.276,-2.886,0.038,0.979,-0.281,-0.519,-0.397,-0.336,100.000,74585.000,1.000
-2.804,-1.955,-8.366,-5.476,-4.491,2.950,-0.151,-2.700,0.038,0.976,-0.279,-0.488,-0.336,-0.275,100.000,74586.000,1.000
-0.965,-0.405,-7.136,-4.480,-3.275,2.789,0.131,-2.911,0.038,0.977,-0.281,-0.427,-0.214,-0.244,100.000,74587.000,1.000
0.819,0.445,-5.739,-3.532,-2.277,1.586,-0.167,-3.087,0.039,0.979,-0.281,-0.275,-0.183,-0.244,100.000,74588.000,1.000
2.341,0.821,-4.066,-2.689,-1.143,0.126,-0.409,-2.804,0.039,0.980,-0.281,-0.183,-0.122,-0.092,100.000,74589.000,1.000
3.582,1.220,-2.011,-1.877,0.456,-0.713,-0.133,-1.944,0.037,0.981,-0.281,-0.122,-0.061,-0.092,100.000,74590.000,1.000
4.572,1.917,0.298,-1.027,2.462,-0.544,0.497,-0.828,0.038,0.982,-0.279,-0.122,-0.092,-0.092,100.000,74591.000,1.000
5.424,2.868,2.564,-0.100,4.494,0.389,0.962,0.084,0.038,0.981,-0.277,-0.214,0.031,0.000,100.000,74592.000,1.000
6.431,4.001,4.578,0.978,6.180,1.595,1.028,0.586,0.038,0.983,-0.280,-0.183,0.000,-0.061,100.000,74593.000,1.000
7.804,5.216,6.210,2.152,7.204,2.643,0.785,0.593,0.038,0.984,-0.280,-0.183,0.061,0.122,100.000,74594.000,1.000
9.283,6.147,7.243,3.060,7.238,3.170,0.305,-0.067,0.039,0.982,-0.280,-0.061,0.153,0.244,100.000,74595.000,1.000
10.252,6.344,7.470,3.262,6.165,3.000,-0.349,-1.374,0.040,0.982,-0.280,-0.122,0.183,0.153,100.000,74596.000,1.000
10.238,5.686,6.962,2.676,4.334,2.295,-0.964,-2.835,0.039,0.982,-0.280,-0.183,0.214,0.244,100.000,74597.000,1.000
9.306,4.521,6.152,1.744,2.468,1.472,-1.206,-3.648,0.039,0.982,-0.281,-0.183,0.244,0.305,100.000,74598.000,1.000
8.089,3.491,5.666,1.212,1.383,1.009,-0.705,-3.079,0.039,0.982,-0.282,-0.214,0.366,0.397,100.000,74599.000,1.000
7.443,3.254,6.067,1.754,1.696,1.286,0.797,-0.789,0.038,0.983,-0.280,-0.244,0.488,0.336,100.000,74600.000,1.000
7.849,4.089,7.478,3.526,3.465,2.376,3.136,2.870,0.040,0.982,-0.281,-0.214,0.427,0.366,100.000,74601.000,1.000
9.030,5.623,9.376,5.948,6.010,3.860,5.542,6.834,0.039,0.981,-0.280,-0.275,0.519,0.458,100.000,74602.000,1.000
10.223,7.100,10.934,8.065,8.271,5.003,6.983,9.828,0.040,0.981,-0.279,-0.305,0.580,0.580,100.000,74603.000,1.000
10.798,7.966,11.623,9.204,9.434,5.278,6.870,11.008,0.041,0.981,-0.280,-0.214,0.641,0.580,100.000,74604.000,1.000
10.613,8.173,11.475,9.297,9.325,4.780,5.533,10.312,0.041,0.981,-0.281,-0.183,0.702,0.580,100.000,74605.000,1.000
9.930,8.031,10.863,8.703,8.312,4.066,3.950,8.393,0.040,0.981,-0.280,-0.122,0.763,0.702,100.000,74606.000,1.000
9.043,7.718,9.999,7.754,6.822,3.535,2.907,6.118,0.041,0.981,-0.281,-0.183,0.793,0.549,100.000,74607.000,1.000
8.030,7.059,8.749,6.538,5.041,3.136,2.508,4.075,0.042,0.980,-0.278,-0.214,0.824,0.641,100.000,74608.000,1.000
6.930,5.920,7.039,5.209,3.166,2.693,2.479,2.588,0.042,0.980,-0.282,-0.336,0.793,0.610,100.000,74609.000,1.000
5.962,4.617,5.238,4.229,1.653,2.241,2.584,1.920,0.040,0.981,-0.283,-0.366,0.793,0.671,100.000,74610.000,1.000
5.411,3.725,3.942,4.083,0.986,2.001,2.678,2.092,0.041,0.979,-0.283,-0.336,0.793,0.671,100.000,74611.000,1.000
5.392,3.600,3.558,4.901,1.362,2.141,2.688,2.743,0.039,0.978,-0.283,-0.397,0.824,0.610,100.000,74612.000,1.000
5.702,4.099,4.008,6.327,2.533,2.531,2.625,3.414,0.040,0.977,-0.280,-0.336,0.854,0.549,100.000,74613.000,1.000
5.761,4.560,4.589,7.561,3.786,2.660,2.453,3.813,0.042,0.978,-0.284,-0.336,1.007,0.702,100.000,74614.000,1.000
4.905,4.207,4.314,7.737,4.262,1.988,2.003,3.772,0.042,0.976,-0.283,-0.214,1.007,0.549,100.000,74615.000,1.000
2.903,2.754,2.668,6.489,3.540,0.447,1.125,3.148,0.040,0.977,-0.282,-0.214,1.007,0.610,100.000,74616.000,1.000
0.144,0.571,-0.004,4.122,1.870,-1.481,-0.116,1.913,0.041,0.976,-0.283,-0.153,0.916,0.732,100.000,74617.000,1.000
-2.564,-1.584,-2.726,1.402,-0.001,-2.995,-1.291,0.389,0.041,0.976,-0.284,-0.092,0.885,0.519,100.000,74618.000,1.000
-4.367,-2.954,-4.461,-0.776,-1.237,-3.313,-1.779,-0.781,0.041,0.975,-0.281,-0.031,0.977,0.458,100.000,74619.000,1.000
-4.816,-3.206,-4.707,-1.774,-1.445,-2.212,-1.320,-1.098,0.042,0.977,-0.281,0.061,0.946,0.488,100.000,74620.000,1.000
-4.083,-2.612,-3.718,-1.489,-0.930,-0.352,-0.324,-0.606,0.042,0.978,-0.279,0.122,0.946,0.336,100.000,74621.000,1.000
-2.848,-1.831,-2.291,-0.345,-0.404,1.176,0.461,0.159,0.040,0.978,-0.284,0.092,0.854,0.244,100.000,74622.000,1.000
-1.985,-1.505,-1.369,0.853,-0.516,1.582,0.440,0.539,0.040,0.978,-0.281,-0.031,0.854,0.305,100.000,74623.000,1.000
-2.137,-1.983,-1.644,1.234,-1.576,0.659,-0.649,0.032,0.042,0.978,-0.283,0.122,0.763,0.244,100.000,74624.000,1.000
-3.279,-3.204,-3.172,0.356,-3.411,-1.182,-2.586,-1.441,0.040,0.980,-0.283,0.153,0.824,0.305,100.000,74625.000,1.000
-4.649,-4.681,-5.227,-1.391,-5.322,-3.013,-4.531,-3.219,0.041,0.980,-0.285,0.122,0.824,0.214,100.000,74626.000,1.000
-5.294,-5.700,-6.685,-2.998,-6.414,-3.981,-5.481,-4.199,0.042,0.980,-0.282,0.061,0.671,0.305,100.000,74627.000,1.000
-4.754,-5.740,-6.731,-3.564,-6.148,-3.913,-5.009,-3.700,0.040,0.979,-0.283,0.061,0.671,0.153,100.000,74628.000,1.000
-3.266,-4.764,-5.278,-2.859,-4.586,-3.266,-3.494,-1.935,0.043,0.980,-0.283,0.000,0.610,0.061,100.000,74629.000,1.000
-1.469,-3.122,-2.857,-1.275,-2.204,-2.646,-1.683,0.393,0.041,0.981,-0.284,0.092,0.549,0.092,100.000,74630.000,1.000
0.021,-1.259,-0.209,0.618,0.450,-2.347,-0.076,2.740,0.039,0.981,-0.285,0.000,0.488,-0.061,100.000,74631.000,1.000
0.777,0.351,1.981,2.312,2.850,-2.267,1.213,4.863,0.041,0.982,-0.286,0.061,0.458,-0.122,100.000,74632.000,1.000
0.504,1.157,3.140,3.311,4.439,-2.127,2.154,6.549,0.039,0.981,-0.282,-0.061,0.397,0.000,100.000,74633.000,1.000
-0.868,0.836,3.008,3.310,4.875,-1.575,2.773,7.568,0.038,0.980,-0.284,-0.031,0.275,-0.092,100.000,74634.000,1.000
-2.961,-0.294,1.902,2.458,4.389,-0.242,3.374,7.893,0.041,0.983,-0.283,-0.153,0.336,-0.061,100.000,74635.000,1.000
-5.038,-1.429,0.536,1.191,3.599,1.923,4.330,7.707,0.041,0.981,-0.284,-0.244,0.214,-0.031,100.000,74636.000,1.000
-6.374,-1.831,-0.431,-0.139,3.005,4.386,5.555,7.175,0.043,0.981,-0.285,-0.275,0.153,-0.122,100.000,74637.000,1.000
-6.513,-1.202,-0.624,-1.302,2.773,6.293,6.479,6.334,0.042,0.982,-0.287,-0.397,0.122,-0.092,100.000,74638.000,1.000
-5.366,0.259,0.020,-2.085,2.824,7.030,6.604,5.188,0.044,0.981,-0.285,-0.519,0.122,0.031,100.000,74639.000,1.000
-3.256,2.001,1.259,-2.347,2.945,6.519,5.888,3.826,0.044,0.982,-0.285,-0.610,0.122,-0.183,100.000,74640.000,1.000
-0.818,3.440,2.640,-2.144,2.912,5.165,4.640,2.484,0.047,0.980,-0.286,-0.641,0.275,-0.275,100.000,74641.000,1.000
1.273,4.239,3.682,-1.713,2.600,3.557,3.236,1.421,0.047,0.980,-0.286,-0.610,0.244,-0.153,100.000,74642.000,1.000
2.546,4.356,4.019,-1.345,1.985,2.105,1.917,0.662,0.047,0.980,-0.284,-0.671,0.275,-0.336,100.000,74643.000,1.000
2.754,3.870,3.439,-1.326,1.065,0.923,0.746,-0.122,0.045,0.982,-0.282,-0.641,0.244,-0.305,100.000,74644.000,1.000
1.771,2.795,1.852,-1.957,-0.191,-0.003,-0.265,-1.289,0.042,0.983,-0.283,-0.763,0.244,-0.336,100.000,74645.000,1.000
-0.364,1.168,-0.623,-3.369,-1.750,-0.676,-1.040,-2.708,0.042,0.981,-0.281,-0.763,0.305,-0.336,100.000,74646.000,1.000
-3.222,-0.727,-3.459,-5.213,-3.365,-1.090,-1.481,-3.738,0.043,0.982,-0.283,-0.854,0.183,-0.427,100.000,74647.000,1.000
-5.951,-2.368,-5.791,-6.705,-4.589,-1.153,-1.478,-3.805,0.043,0.983,-0.283,-0.854,0.122,-0.336,100.000,74648.000,1.000
-7.668,-3.309,-6.883,-7.131,-5.063,-0.699,-0.963,-2.904,0.043,0.984,-0.284,-0.977,0.153,-0.214,100.000,74649.000,1.000
-7.992,-3.496,-6.630,-6.419,-4.857,0.198,-0.170,-1.660,0.042,0.981,-0.282,-1.038,0.214,-0.122,100.000,74650.000,1.000
-7.182,-3.272,-5.610,-5.213,-4.502,0.983,0.257,-1.060,0.039,0.983,-0.283,-1.038,0.183,-0.183,100.000,74651.000,1.000
-5.760,-3.027,-4.606,-4.319,-4.574,1.046,-0.206,-1.839,0.042,0.982,-0.280,-1.038,0.183,-0.183,100.000,74652.000,1.000
-4.064,-2.836,-4.044,-4.034,-5.180,0.442,-1.274,-3.796,0.042,0.980,-0.280,-1.038,0.122,-0.244,100.000,74653.000,1.000
-2.191,-2.504,-3.840,-4.049,-5.903,-0.182,-2.062,-5.816,0.041,0.979,-0.282,-1.068,0.122,-0.244,100.000,74654.000,1.000
-0.252,-1.968,-3.758,-3.905,-6.294,-0.495,-2.103,-6.834,0.039,0.979,-0.284,-1.038,0.122,-0.214,100.000,74655.000,1.000
1.401,-1.548,-3.798,-3.435,-6.338,-0.937,-1.892,-6.733,0.040,0.979,-0.283,-0.977,0.122,-0.153,100.000,74656.000,1.000
2.298,-1.683,-4.109,-2.785,-6.325,-2.114,-2.301,-6.101,0.038,0.977,-0.285,-0.977,0.092,-0.122,100.000,74657.000,1.000
2.271,-2.436,-4.584,-2.133,-6.398,-4.041,-3.674,-5.327,0.038,0.977,-0.285,-0.946,-0.031,-0.061,100.000,74658.000,1.000
1.635,-3.385,-4.801,-1.459,-6.408,-6.071,-5.557,-4.310,0.037,0.975,-0.284,-0.946,-0.153,-0.092,100.000,74659.000,1.000
0.883,-3.972,-4.369,-0.590,-6.132,-7.320,-7.041,-2.912,0.036,0.975,-0.282,-0.854,-0.305,-0.061,100.000,74660.000,1.000
0.334,-3.872,-3.241,0.568,-5.490,-7.208,-7.301,-1.328,0.036,0.978,-0.282,-0.885,-0.336,0.000,100.000,74661.000,1.000
-0.024,-3.166,-1.819,1.771,-4.696,-5.875,-6.159,-0.048,0.037,0.977,-0.285,-0.793,-0.458,0.000,100.000,74662.000,1.000
-0.525,-2.350,-0.835,2.370,-4.271,-4.174,-4.370,0.302,0.039,0.976,-0.285,-0.702,-0.549,-0.092,100.000,74663.000,1.000
-1.554,-2.045,-0.922,1.691,-4.704,-3.123,-3.176,-0.798,0.038,0.976,-0.284,-0.549,-0.580,0.000,100.000,74664.000,1.000
-3.146,-2.511,-2.103,-0.364,-5.908,-3.153,-3.312,-3.257,0.039,0.976,-0.282,-0.549,-0.610,-0.031,100.000,74665.000,1.000
-4.959,-3.470,-3.764,-3.124,-7.123,-3.782,-4.392,-6.135,0.039,0.976,-0.282,-0.397,-0.702,0.092,100.000,74666.000,1.000
-6.631,-4.435,-5.136,-5.578,-7.477,-4.086,-5.276,-8.188,0.039,0.975,-0.283,-0.397,-0.702,0.031,100.000,74667.000,1.000
-7.936,-5.052,-5.717,-6.890,-6.566,-3.484,-4.955,-8.577,0.038,0.975,-0.284,-0.244,-0.732,0.000,100.000,74668.000,1.000
-8.594,-5.066,-5.281,-6.603,-4.506,-2.011,-3.139,-7.083,0.042,0.977,-0.283,-0.122,-0.793,0.061,100.000,74669.000,1.000
-8.213,-4.274,-3.791,-4.668,-1.708,-0.066,-0.261,-3.968,0.044,0.977,-0.284,-0.153,-0.641,0.061,100.000,74670.000,1.000
-6.613,-2.672,-1.515,-1.555,1.252,1.905,2.898,0.154,0.043,0.977,-0.285,-0.122,-0.641,0.031,100.000,74671.000,1.000
-4.047,-0.505,0.998,1.854,3.822,3.649,5.692,4.462,0.045,0.977,-0.287,0.061,-0.580,-0.122,100.000,74672.000,1.000
-1.060,1.907,3.223,4.741,5.765,5.175,7.841,8.134,0.045,0.976,-0.285,0.153,-0.519,0.031,100.000,74673.000,1.000
1.646,4.185,4.791,6.611,7.071,6.455,9.219,10.463,0.046,0.976,-0.286,0.092,-0.458,-0.031,100.000,74674.000,1.000
3.358,5.811,5.409,7.106,7.621,7.083,9.555,10.921,0.046,0.977,-0.288,0.275,-0.458,0.000,100.000,74675.000,1.000
3.756,6.370,4.977,6.055,7.219,6.532,8.596,9.369,0.045,0.981,-0.285,0.397,-0.305,0.000,100.000,74676.000,1.000
3.133,5.866,3.732,3.751,5.893,4.751,6.431,6.226,0.044,0.981,-0.286,0.336,-0.214,0.061,100.000,74677.000,1.000
2.017,4.681,2.058,0.837,3.948,2.271,3.471,2.329,0.044,0.979,-0.283,0.244,-0.122,-0.031,100.000,74678.000,1.000
0.669,3.178,0.175,-2.137,1.771,-0.207,0.263,-1.402,0.044,0.977,-0.284,0.214,0.031,-0.122,100.000,74679.000,1.000
-0.973,1.400,-1.873,-4.833,-0.301,-2.187,-2.576,-4.239,0.043,0.979,-0.285,0.214,0.061,-0.183,100.000,74680.000,1.000
-2.876,-0.692,-3.864,-6.892,-1.884,-3.368,-4.422,-5.718,0.043,0.979,-0.284,0.153,0.122,-0.305,100.000,74681.000,1.000
-4.641,-2.815,-5.272,-7.885,-2.507,-3.510,-4.825,-5.719,0.043,0.980,-0.283,0.275,0.122,-0.305,100.000,74682.000,1.000
-5.728,-4.457,-5.666,-7.671,-1.944,-2.631,-3.809,-4.635,0.042,0.984,-0.282,0.214,0.153,-0.305,100.000,74683.000,1.000
-5.902,-5.258,-5.105,-6.684,-0.521,-1.233,-1.981,-3.228,0.041,0.984,-0.282,0.214,0.214,-0.427,100.000,74684.000,1.000
-5.313,-5.095,-3.975,-5.681,1.103,0.014,-0.177,-2.108,0.042,0.982,-0.283,-0.031,0.275,-0.488,100.000,74685.000,1.000
-4.196,-3.982,-2.560,-5.058,2.463,0.782,1.092,-1.372,0.040,0.979,-0.286,-0.122,0.214,-0.366,100.000,74686.000,1.000
-2.731,-2.191,-0.974,-4.572,3.497,1.135,1.794,-0.762,0.039,0.975,-0.288,-0.153,0.275,-0.305,100.000,74687.000,1.000
-1.210,-0.338,0.585,-3.787,4.322,1.232,2.105,-0.087,0.038,0.971,-0.290,-0.031,0.214,-0.275,100.000,74688.000,1.000
-0.031,0.919,1.784,-2.573,5.019,1.133,2.181,0.585,0.037,0.972,-0.287,0.092,0.275,-0.214,100.000,74689.000,1.000
0.585,1.258,2.408,-1.119,5.612,0.834,2.107,1.105,0.037,0.976,-0.288,0.153,0.183,-0.214,100.000,74690.000,1.000
0.764,0.852,2.573,0.303,6.168,0.427,1.960,1.490,0.037,0.979,-0.285,0.214,0.122,-0.061,100.000,74691.000,1.000
0.930,0.316,2.705,1.536,6.847,0.218,1.957,1.966,0.039,0.981,-0.287,0.244,0.092,0.061,100.000,74692.000,1.000
1.583,0.409,3.275,2.621,7.816,0.622,2.469,2.785,0.039,0.979,-0.286,0.244,0.092,0.061,100.000,74693.000,1.000
2.912,1.492,4.401,3.638,8.984,1.877,3.673,3.923,0.039,0.981,-0.288,0.214,-0.092,0.275,100.000,74694.000,1.000
4.532,3.210,5.655,4.428,9.877,3.788,5.218,4.885,0.039,0.981,-0.285,0.153,-0.092,0.275,100.000,74695.000,1.000
5.769,4.766,6.383,4.638,9.881,5.718,6.347,4.929,0.039,0.985,-0.286,0.122,-0.061,0.336,100.000,74696.000,1.000
6.113,5.432,6.155,4.009,8.610,6.808,6.343,3.556,0.038,0.987,-0.286,0.153,-0.183,0.427,100.000,74697.000,1.000
5.431,4.879,4.963,2.574,6.082,6.338,4.823,0.909,0.037,0.988,-0.284,-0.061,-0.275,0.336,100.000,74698.000,1.000
4.032,3.320,3.232,0.742,2.781,4.147,1.872,-2.238,0.035,0.991,-0.282,-0.336,-0.336,0.214,100.000,74699.000,1.000
2.593,1.459,1.679,-0.790,-0.409,0.900,-1.772,-4.887,0.035,0.991,-0.281,-0.519,-0.458,0.244,100.000,74700.000,1.000
1.799,0.149,0.957,-1.377,-2.530,-2.159,-4.876,-6.227,0.037,0.991,-0.280,-0.824,-0.458,0.214,100.000,74701.000,1.000
1.866,-0.195,1.204,-0.872,-3.118,-4.078,-6.499,-5.898,0.036,0.991,-0.281,-1.007,-0.580,-0.061,100.000,74702.000,1.000
2.440,0.097,1.927,0.263,-2.542,-4.805,-6.568,-4.160,0.034,0.992,-0.281,-1.221,-0.580,-0.183,100.000,74703.000,1.000
3.036,0.345,2.422,1.391,-1.641,-4.778,-5.529,-1.748,0.036,0.991,-0.282,-1.465,-0.610,-0.244,100.000,74704.000,1.000
3.430,0.121,2.278,2.156,-1.121,-4.338,-3.846,0.491,0.038,0.988,-0.285,-1.617,-0.671,-0.183,100.000,74705.000,1.000
3.668,-0.502,1.542,2.538,-1.259,-3.654,-1.993,1.902,0.038,0.986,-0.284,-1.740,-0.702,-0.183,100.000,74706.000,1.000
3.991,-1.047,0.657,2.774,-1.891,-2.818,-0.476,2.268,0.040,0.984,-0.280,-1.831,-0.732,-0.183,100.000,74707.000,1.000
4.700,-0.997,0.227,3.196,-2.553,-1.829,0.422,1.922,0.042,0.982,-0.280,-2.014,-0.610,-0.366,100.000,74708.000,1.000
5.793,-0.237,0.600,3.954,-2.790,-0.684,0.744,1.472,0.040,0.981,-0.282,-2.014,-0.641,-0.458,100.000,74709.000,1.000
6.766,0.838,1.564,4.802,-2.505,0.433,0.546,1.204,0.040,0.981,-0.279,-1.892,-0.610,-0.427,100.000,74710.000,1.000
6.912,1.681,2.465,5.153,-2.036,1.206,-0.344,0.779,0.040,0.980,-0.282,-1.984,-0.580,-0.366,100.000,74711.000,1.000
5.932,2.035,2.782,4.563,-1.731,1.569,-1.886,-0.241,0.042,0.981,-0.281,-2.045,-0.610,-0.305,100.000,74712.000,1.000
4.290,2.087,2.656,3.312,-1.464,1.889,-3.388,-1.649,0.040,0.979,-0.280,-1.984,-0.580,-0.397,100.000,74713.000,1.000
2.868,2.214,2.677,2.223,-0.836,2.513,-4.002,-2.723,0.039,0.978,-0.278,-1.984,-0.519,-0.336,100.000,74714.000,1.000
2.234,2.593,3.225,1.869,0.235,3.247,-3.515,-3.067,0.039,0.978,-0.277,-1.892,-0.427,-0.366,100.000,74715.000,1.000
2.343,3.028,4.180,2.186,1.380,3.534,-2.348,-2.916,0.039,0.976,-0.278,-1.770,-0.397,-0.275,100.000,74716.000,1.000
2.698,3.055,5.051,2.707,2.087,3.025,-1.106,-2.707,0.037,0.976,-0.278,-1.740,-0.336,-0.397,100.000,74717.000,1.000
2.682,2.265,5.264,2.918,1.978,1.830,-0.316,-2.671,0.037,0.974,-0.281,-1.709,-0.458,-0.366,100.000,74718.000,1.000
1.931,0.622,4.501,2.534,0.980,0.389,-0.244,-2.738,0.038,0.971,-0.281,-1.617,-0.458,-0.427,100.000,74719.000,1.000
0.614,-1.451,2.959,1.712,-0.605,-0.767,-0.732,-2.595,0.039,0.971,-0.281,-1.526,-0.488,-0.366,100.000,74720.000,1.000
-0.580,-3.259,1.324,1.016,-2.200,-1.290,-1.366,-1.856,0.038,0.972,-0.281,-1.312,-0.458,-0.458,100.000,74721.000,1.000
-0.953,-4.192,0.335,0.983,-3.257,-1.250,-1.907,-0.484,0.039,0.970,-0.281,-1.160,-0.427,-0.366,100.000,74722.000,1.000
-0.464,-4.044,0.221,1.537,-3.599,-1.106,-2.447,0.875,0.039,0.970,-0.279,-0.977,-0.488,-0.397,100.000,74723.000,1.000
0.279,-2.971,0.663,2.026,-3.378,-1.304,-3.064,1.330,0.039,0.970,-0.282,-0.824,-0.427,-0.275,100.000,74724.000,1.000
0.735,-1.222,1.297,1.938,-2.702,-1.833,-3.371,0.666,0.039,0.970,-0.281,-0.702,-0.244,-0.366,100.000,74725.000,1.000
0.797,0.857,1.904,1.265,-1.629,-2.299,-2.744,-0.551,0.040,0.971,-0.282,-0.580,-0.183,-0.092,100.000,74726.000,1.000
0.554,2.754,2.268,0.234,-0.439,-2.428,-1.074,-1.677,0.042,0.973,-0.278,-0.397,-0.122,0.061,100.000,74727.000,1.000
0.131,4.046,2.267,-0.928,0.483,-2.252,1.035,-2.353,0.041,0.973,-0.284,-0.214,-0.031,0.122,100.000,74728.000,1.000
-0.310,4.593,2.004,-2.011,0.966,-1.862,2.791,-2.406,0.041,0.975,-0.283,-0.214,0.153,0.183,100.000,74729.000,1.000
-0.674,4.422,1.673,-2.844,1.048,-1.337,3.639,-1.902,0.043,0.976,-0.279,-0.031,0.214,0.397,100.000,74730.000,1.000
-0.915,3.683,1.441,-3.267,0.856,-0.806,3.412,-1.194,0.043,0.978,-0.281,0.122,0.244,0.336,100.000,74731.000,1.000
-0.897,2.763,1.498,-3.033,0.640,-0.324,2.409,-0.628,0.042,0.979,-0.283,0.092,0.305,0.488,100.000,74732.000,1.000
-0.428,2.209,2.043,-1.854,0.757,0.251,1.280,-0.200,0.042,0.979,-0.282,0.092,0.397,0.488,100.000,74733.000,1.000
0.607,2.392,3.151,0.405,1.463,1.140,0.678,0.448,0.041,0.980,-0.282,0.092,0.549,0.427,100.000,74734.000,1.000
2.111,3.214,4.623,3.509,2.688,2.318,0.854,1.728,0.041,0.981,-0.281,0.153,0.580,0.580,100.000,74735.000,1.000
3.687,4.096,5.945,6.802,3.964,3.306,1.439,3.777,0.042,0.983,-0.282,0.183,0.610,0.580,100.000,74736.000,1.000
4.804,4.352,6.526,9.453,4.664,3.464,1.745,6.286,0.042,0.985,-0.282,0.061,0.671,0.610,100.000,74737.000,1.000
5.190,3.693,6.104,10.870,4.384,2.533,1.290,8.529,0.041,0.985,-0.278,0.031,0.702,0.519,100.000,74738.000,1.000
5.135,2.483,5.006,11.029,3.241,0.846,0.082,9.740,0.041,0.984,-0.281,-0.092,0.763,0.458,100.000,74739.000,1.000
5.365,1.572,4.016,10.518,1.938,-0.847,-1.341,9.671,0.040,0.987,-0.284,-0.244,0.793,0.427,100.000,74740.000,1.000
6.433,1.715,3.841,10.097,1.366,-1.724,-2.200,8.676,0.042,0.986,-0.284,-0.336,0.824,0.427,100.000,74741.000,1.000
8.165,2.966,4.550,10.047,1.881,-1.357,-2.097,7.171,0.041,0.986,-0.281,-0.458,0.793,0.427,100.000,74742.000,1.000
9.764,4.572,5.496,10.022,2.951,-0.124,-1.387,5.279,0.039,0.986,-0.283,-0.488,0.824,0.397,100.000,74743.000,1.000
10.353,5.468,5.745,9.488,3.562,0.940,-0.842,3.068,0.039,0.987,-0.283,-0.641,0.763,0.275,100.000,74744.000,1.000
9.428,4.982,4.676,8.163,2.972,0.909,-1.010,0.861,0.042,0.988,-0.281,-0.732,0.732,0.153,100.000,74745.000,1.000
7.102,3.249,2.409,6.195,1.198,-0.406,-1.857,-0.841,0.040,0.988,-0.284,-0.732,0.702,0.061,100.000,74746.000,1.000
4.110,1.088,-0.233,4.074,-1.047,-2.448,-2.874,-1.676,0.038,0.989,-0.284,-0.824,0.671,0.061,100.000,74747.000,1.000
1.451,-0.508,-2.249,2.365,-2.825,-4.318,-3.442,-1.581,0.038,0.985,-0.281,-0.946,0.580,0.122,100.000,74748.000,1.000
-0.152,-0.935,-3.067,1.429,-3.505,-5.270,-3.177,-0.744,0.036,0.980,-0.281,-1.007,0.580,0.122,100.000,74749.000,1.000
-0.521,-0.260,-2.745,1.283,-3.031,-5.025,-2.092,0.471,0.039,0.977,-0.285,-1.160,0.519,0.122,100.000,74750.000,1.000
0.094,0.962,-1.729,1.667,-1.822,-3.734,-0.523,1.608,0.038,0.975,-0.287,-1.068,0.519,0.092,100.000,74751.000,1.000
1.174,2.038,-0.554,2.199,-0.494,-1.949,1.011,2.268,0.038,0.980,-0.286,-0.824,0.519,0.061,100.000,74752.000,1.000
2.010,2.402,0.286,2.451,0.345,-0.573,1.939,2.181,0.040,0.984,-0.286,-0.793,0.458,0.183,100.000,74753.000,1.000
1.970,1.852,0.455,2.062,0.290,-0.401,1.809,1.221,0.041,0.984,-0.282,-0.763,0.366,0.244,100.000,74754.000,1.000
0.825,0.626,-0.124,0.855,-0.712,-1.652,0.483,-0.562,0.040,0.984,-0.282,-0.885,0.427,0.336,100.000,74755.000,1.000
-1.189,-0.860,-1.348,-1.154,-2.456,-3.952,-1.774,-2.918,0.039,0.980,-0.283,-0.916,0.366,0.275,100.000,74756.000,1.000
-3.526,-2.291,-3.033,-3.806,-4.616,-6.527,-4.346,-5.535,0.040,0.979,-0.283,-0.946,0.305,0.305,100.000,74757.000,1.000
-5.521,-3.419,-4.867,-6.725,-6.715,-8.355,-6.360,-8.039,0.040,0.975,-0.285,-0.854,0.275,0.366,100.000,74758.000,1.000
-6.627,-3.957,-6.330,-9.223,-8.078,-8.470,-6.903,-9.820,0.042,0.975,-0.284,-0.641,0.275,0.336,100.000,74759.000,1.000
-6.708,-3.721,-6.901,-10.545,-8.127,-6.533,-5.550,-10.206,0.040,0.976,-0.288,-0.519,0.336,0.153,100.000,74760.000,1.000
-6.144,-2.875,-6.440,-10.344,-6.824,-3.239,-2.812,-8.955,0.038,0.976,-0.286,-0.458,0.183,0.183,100.000,74761.000,1.000
-5.576,-1.933,-5.336,-8.859,-4.761,0.047,0.107,-6.485,0.038,0.976,-0.282,-0.427,0.092,0.122,100.000,74762.000,1.000
-5.514,-1.529,-4.283,-6.738,-2.829,2.154,2.127,-3.636,0.038,0.974,-0.283,-0.397,0.000,0.061,100.000,74763.000,1.000
-6.130,-2.082,-3.937,-4.784,-1.787,2.649,2.833,-1.232,0.036,0.973,-0.284,-0.214,-0.031,-0.031,100.000,74764.000,1.000
-7.243,-3.497,-4.644,-3.647,-1.941,1.924,2.326,0.224,0.038,0.973,-0.287,-0.275,-0.092,-0.031,100.000,74765.000,1.000
-8.474,-5.145,-6.312,-3.585,-3.036,0.879,0.993,0.681,0.039,0.973,-0.287,-0.122,-0.183,-0.305,100.000,74766.000,1.000
-9.494,-6.287,-8.494,-4.466,-4.475,0.285,-0.544,0.433,0.042,0.974,-0.284,-0.031,-0.122,-0.488,100.000,74767.000,1.000
-10.068,-6.510,-10.534,-5.860,-5.600,0.339,-1.657,-0.171,0.042,0.973,-0.286,-0.061,-0.092,-0.641,100.000,74768.000,1.000
-9.926,-5.795,-11.672,-7.069,-5.842,0.847,-2.008,-0.817,0.044,0.976,-0.285,0.031,-0.061,-0.488,100.000,74769.000,1.000
-8.940,-4.421,-11.409,-7.429,-4.934,1.557,-1.593,-1.198,0.043,0.976,-0.285,0.122,-0.031,-0.488,100.000,74770.000,1.000
-7.502,-2.919,-9.977,-6.868,-3.184,2.264,-0.628,-1.183,0.044,0.976,-0.284,0.214,0.092,-0.458,100.000,74771.000,1.000
-6.397,-1.859,-8.224,-5.987,-1.345,2.839,0.554,-0.916,0.045,0.976,-0.287,0.244,0.122,-0.458,100.000,74772.000,1.000
-6.180,-1.577,-6.997,-5.556,-0.122,3.218,1.578,-0.569,0.044,0.978,-0.287,0.305,0.153,-0.244,100.000,74773.000,1.000
-6.883,-2.102,-6.720,-6.037,0.118,3.274,2.075,-0.216,0.042,0.980,-0.283,0.275,0.214,-0.153,100.000,74774.000,1.000
-8.135,-3.242,-7.342,-7.409,-0.630,2.834,1.849,-0.039,0.043,0.984,-0.284,0.214,0.244,-0.122,100.000,74775.000,1.000
-9.239,-4.544,-8.310,-9.078,-1.933,2.020,1.172,-0.214,0.042,0.984,-0.281,0.122,0.336,0.031,100.000,74776.000,1.000
-9.383,-5.379,-8.742,-10.079,-2.963,1.380,0.776,-0.506,0.041,0.985,-0.280,0.031,0.305,0.092,100.000,74777.000,1.000
-8.159,-5.302,-7.968,-9.700,-2.983,1.509,1.288,-0.439,0.038,0.985,-0.281,-0.031,0.244,0.183,100.000,74778.000,1.000
-5.795,-4.322,-5.939,-7.964,-1.868,2.541,2.699,0.129,0.039,0.986,-0.279,-0.153,0.214,0.122,100.000,74779.000,1.000
-2.890,-2.810,-3.138,-5.505,-0.089,3.941,4.423,0.969,0.038,0.987,-0.281,-0.397,0.244,0.061,100.000,74780.000,1.000
-0.132,-1.280,-0.243,-3.130,1.708,4.877,5.768,1.862,0.039,0.989,-0.280,-0.397,0.122,0.061,100.000,74781.000,1.000
1.854,-0.184,2.118,-1.443,3.077,4.931,6.352,2.714,0.037,0.988,-0.281,-0.549,0.122,0.061,100.000,74782.000,1.000
2.687,0.259,3.507,-0.679,3.858,4.329,6.161,3.351,0.037,0.989,-0.281,-0.702,0.092,0.000,100.000,74783.000,1.000
2.362,0.108,3.734,-0.744,4.023,3.489,5.348,3.399,0.037,0.989,-0.278,-0.732,0.031,0.122,100.000,74784.000,1.000
1.244,-0.423,2.883,-1.335,3.616,2.675,4.156,2.546,0.037,0.987,-0.281,-0.916,0.061,0.092,100.000,74785.000,1.000
-0.060,-1.107,1.352,-2.011,2.868,2.066,3.017,0.976,0.037,0.986,-0.281,-0.977,0.000,0.092,100.000,74786.000,1.000
-0.989,-1.849,-0.301,-2.374,2.119,1.723,2.354,-0.628,0.035,0.985,-0.280,-1.160,0.031,0.000,100.000,74787.000,1.000
-1.317,-2.724,-1.667,-2.345,1.508,1.418,2.211,-1.612,0.038,0.982,-0.279,-1.160,-0.153,0.000,100.000,74788.000,1.000
-1.103,-3.731,-2.566,-2.123,0.994,0.872,2.274,-1.766,0.038,0.980,-0.279,-1.129,-0.153,0.061,100.000,74789.000,1.000
-0.469,-4.654,-2.943,-1.932,0.595,0.155,2.214,-1.348,0.039,0.979,-0.282,-1.129,-0.183,0.031,100.000,74790.000,1.000
0.331,-5.330,-2.972,-1.995,0.296,-0.407,1.890,-0.917,0.038,0.980,-0.280,-1.129,-0.214,0.122,100.000,74791.000,1.000
0.816,-5.817,-3.070,-2.493,-0.054,-0.586,1.393,-0.975,0.038,0.978,-0.282,-1.007,-0.183,0.183,100.000,74792.000,1.000
0.629,-6.108,-3.431,-3.216,-0.433,-0.322,0.987,-1.457,0.038,0.978,-0.281,-1.038,-0.397,0.153,100.000,74793.000,1.000
-0.133,-5.943,-3.741,-3.571,-0.472,0.372,0.918,-1.674,0.040,0.977,-0.281,-0.946,-0.458,0.061,100.000,74794.000,1.000
-1.147,-5.140,-3.617,-3.246,0.069,1.316,1.173,-1.109,0.038,0.978,-0.281,-0.885,-0.458,0.061,100.000,74795.000,1.000
-2.171,-3.888,-3.050,-2.576,0.911,2.147,1.433,-0.063,0.036,0.978,-0.280,-0.702,-0.458,0.031,100.000,74796.000,1.000
-2.982,-2.570,-2.276,-2.049,1.576,2.567,1.329,0.815,0.038,0.976,-0.280,-0.641,-0.458,0.031,100.000,74797.000,1.000
-3.366,-1.463,-1.507,-1.814,1.830,2.466,0.717,1.281,0.038,0.975,-0.280,-0.671,-0.397,-0.122,100.000,74798.000,1.000
-3.307,-0.635,-0.880,-1.705,1.745,1.888,-0.266,1.453,0.039,0.974,-0.283,-0.580,-0.397,-0.244,100.000,74799.000,1.000
-3.022,-0.001,-0.468,-1.404,1.608,1.078,-1.211,1.573,0.040,0.974,-0.280,-0.397,-0.397,-0.153,100.000,74800.000,1.000
-2.777,0.541,-0.257,-0.588,1.750,0.444,-1.622,1.972,0.038,0.973,-0.281,-0.275,-0.336,-0.214,100.000,74801.000,1.000
-2.734,1.037,-0.183,0.772,2.280,0.276,-1.316,2.845,0.040,0.974,-0.282,-0.153,-0.336,-0.275,100.000,74802.000,1.000
-2.877,1.469,-0.211,2.267,2.932,0.493,-0.590,3.937,0.038,0.973,-0.279,-0.092,-0.458,-0.244,100.000,74803.000,1.000
-2.997,1.721,-0.342,3.265,3.239,0.741,0.066,4.688,0.039,0.975,-0.278,0.000,-0.397,-0.244,100.000,74804.000,1.000
-2.847,1.578,-0.565,3.257,2.864,0.698,0.339,4.737,0.041,0.975,-0.279,0.092,-0.244,-0.275,100.000,74805.000,1.000
-2.341,0.909,-0.788,2.155,1.835,0.234,0.213,4.176,0.041,0.976,-0.281,0.244,-0.244,-0.275,100.000,74806.000,1.000
-1.589,-0.120,-0.837,0.449,0.536,-0.561,-0.128,3.347,0.041,0.976,-0.283,0.214,-0.183,-0.244,100.000,74807.000,1.000
-0.774,-1.035,-0.548,-1.046,-0.542,-1.386,-0.441,2.525,0.041,0.978,-0.283,0.183,-0.153,-0.214,100.000,74808.000,1.000
-0.068,-1.320,0.058,-1.762,-1.151,-1.904,-0.572,1.713,0.039,0.978,-0.283,0.305,-0.153,-0.305,100.000,74809.000,1.000
0.413,-0.719,0.761,-1.678,-1.425,-2.025,-0.536,0.745,0.038,0.978,-0.282,0.427,-0.092,-0.305,100.000,74810.000,1.000
0.699,0.618,1.334,-1.120,-1.694,-2.030,-0.495,-0.371,0.038,0.979,-0.283,0.458,0.000,-0.305,100.000,74811.000,1.000
0.918,2.139,1.650,-0.491,-2.244,-2.363,-0.686,-1.394,0.039,0.979,-0.281,0.488,0.061,-0.153,100.000,74812.000,1.000
1.125,3.159,1.638,-0.143,-3.173,-3.194,-1.243,-2.073,0.038,0.979,-0.282,0.458,0.031,-0.061,100.000,74813.000,1.000
1.301,3.316,1.322,-0.175,-4.275,-4.165,-1.954,-2.160,0.040,0.978,-0.282,0.458,-0.061,-0.092,100.000,74814.000,1.000
1.511,2.794,0.902,-0.312,-5.098,-4.709,-2.322,-1.349,0.038,0.978,-0.280,0.488,-0.061,-0.031,100.000,74815.000,1.000
1.979,2.143,0.668,-0.143,-5.261,-4.567,-1.996,0.383,0.036,0.979,-0.283,0.519,0.000,-0.031,100.000,74816.000,1.000
2.953,1.879,0.817,0.521,-4.755,-3.912,-1.060,2.452,0.036,0.980,-0.286,0.488,0.000,0.061,100.000,74817.000,1.000
4.401,2.086,1.317,1.512,-3.943,-3.119,0.109,3.972,0.037,0.981,-0.285,0.580,0.031,-0.092,100.000,74818.000,1.000
5.895,2.422,1.953,2.451,-3.204,-2.461,1.149,4.403,0.037,0.982,-0.282,0.488,0.061,-0.031,100.000,74819.000,1.000
6.947,2.622,2.600,3.085,-2.525,-1.902,1.914,3.907,0.038,0.984,-0.283,0.397,0.122,0.000,100.000,74820.000,1.000
7.394,2.871,3.380,3.499,-1.545,-1.219,2.385,3.081,0.037,0.984,-0.282,0.366,0.153,0.214,100.000,74821.000,1.000
7.333,3.496,4.419,3.895,-0.059,-0.392,2.460,2.343,0.038,0.985,-0.281,0.275,0.153,0.122,100.000,74822.000,1.000
6.851,4.471,5.562,4.249,1.667,0.257,1.981,1.633,0.038,0.986,-0.281,0.061,0.122,0.214,100.000,74823.000,1.000
6.004,5.360,6.486,4.355,3.128,0.381,1.026,0.683,0.037,0.985,-0.284,-0.031,0.092,0.244,100.000,74824.000,1.000
4.926,5.649,6.950,4.067,3.938,-0.083,-0.005,-0.652,0.038,0.985,-0.285,-0.153,0.183,0.183,100.000,74825.000,1.000
3.862,5.149,6.905,3.395,4.006,-0.921,-0.691,-2.284,0.036,0.985,-0.285,-0.275,0.183,0.122,100.000,74826.000,1.000
3.089,4.131,6.473,2.468,3.541,-1.851,-0.987,-3.899,0.035,0.986,-0.283,-0.488,0.183,0.061,100.000,74827.000,1.000
2.760,3.042,5.848,1.506,2.884,-2.715,-1.231,-5.046,0.038,0.984,-0.284,-0.610,0.214,0.061,100.000,74828.000,1.000
2.884,2.194,5.285,0.866,2.372,-3.379,-1.660,-5.323,0.038,0.986,-0.284,-0.610,0.244,0.122,100.000,74829.000,1.000
3.426,1.724,5.075,0.968,2.300,-3.538,-2.063,-4.610,0.035,0.982,-0.282,-0.610,0.214,0.275,100.000,74830.000,1.000
4.250,1.661,5.378,2.009,2.799,-2.811,-2.047,-3.206,0.038,0.981,-0.282,-0.763,0.214,0.214,100.000,74831.000,1.000
5.101,2.035,6.130,3.803,3.764,-1.110,-1.417,-1.631,0.039,0.983,-0.285,-0.854,0.244,0.214,100.000,74832.000,1.000
5.809,2.906,7.183,6.002,4.969,1.172,-0.293,-0.231,0.038,0.983,-0.284,-0.916,0.336,0.305,100.000,74833.000,1.000
6.315,4.114,8.317,8.221,6.087,3.280,0.889,0.861,0.038,0.981,-0.284,-0.916,0.366,0.275,100.000,74834.000,1.000
6.348,4.950,9.012,9.836,6.518,4.283,1.405,1.395,0.039,0.983,-0.285,-1.129,0.397,0.336,100.000,74835.000,1.000
5.471,4.522,8.601,10.115,5.631,3.487,0.621,1.036,0.039,0.981,-0.283,-1.038,0.336,0.244,100.000,74836.000,1.000
3.730,2.680,6.954,8.954,3.493,1.095,-1.392,-0.104,0.040,0.978,-0.282,-1.160,0.488,0.305,100.000,74837.000,1.000
1.944,0.341,4.769,7.146,1.047,-1.723,-3.770,-1.339,0.040,0.978,-0.283,-1.221,0.488,0.336,100.000,74838.000,1.000
1.119,-1.228,2.994,5.692,-0.639,-3.669,-5.490,-1.984,0.038,0.978,-0.285,-1.221,0.549,0.244,100.000,74839.000,1.000
1.703,-1.294,2.147,5.083,-1.146,-4.147,-6.013,-1.900,0.038,0.979,-0.284,-1.221,0.580,0.244,100.000,74840.000,1.000
3.368,-0.013,2.192,5.215,-0.770,-3.383,-5.411,-1.477,0.039,0.979,-0.283,-1.068,0.580,0.244,100.000,74841.000,1.000
5.236,1.696,2.690,5.581,-0.192,-2.085,-4.217,-1.336,0.041,0.977,-0.285,-1.099,0.641,0.244,100.000,74842.000,1.000
6.313,2.650,3.005,5.504,-0.085,-1.037,-3.103,-1.956,0.038,0.977,-0.284,-1.129,0.580,0.092,100.000,74843.000,1.000
6.032,2.191,2.696,4.600,-0.636,-0.670,-2.423,-3.261,0.038,0.977,-0.282,-1.038,0.580,0.183,100.000,74844.000,1.000
4.637,0.686,1.906,3.216,-1.289,-0.797,-1.965,-4.466,0.036,0.979,-0.284,-1.007,0.580,0.122,100.000,74845.000,1.000
3.063,-0.759,1.293,2.266,-1.159,-0.874,-1.298,-4.537,0.037,0.979,-0.285,-0.885,0.610,0.244,100.000,74846.000,1.000
2.263,-1.132,1.429,2.459,0.185,-0.519,-0.321,-3.075,0.037,0.979,-0.285,-0.793,0.610,0.336,100.000,74847.000,1.000
2.431,-0.191,2.210,3.602,2.271,0.247,0.624,-0.787,0.035,0.979,-0.282,-0.763,0.671,0.366,100.000,74848.000,1.000
2.837,1.473,2.863,4.679,4.017,1.135,1.126,1.078,0.037,0.978,-0.282,-0.763,0.610,0.366,100.000,74849.000,1.000
2.489,2.938,2.603,4.654,4.497,1.827,1.029,1.773,0.039,0.977,-0.282,-0.610,0.580,0.214,100.000,74850.000,1.000
0.973,3.550,1.280,3.219,3.536,2.172,0.502,1.479,0.039,0.978,-0.282,-0.519,0.519,0.214,100.000,74851.000,1.000
-1.339,3.225,-0.568,0.858,1.722,2.271,-0.011,0.814,0.040,0.979,-0.281,-0.549,0.641,0.122,100.000,74852.000,1.000
-3.672,2.381,-2.137,-1.616,-0.059,2.439,-0.038,0.204,0.041,0.980,-0.278,-0.488,0.641,0.183,100.000,74853.000,1.000
-5.337,1.597,-2.856,-3.457,-1.138,2.943,0.573,-0.228,0.041,0.978,-0.280,-0.397,0.671,0.275,100.000,74854.000,1.000
-6.071,1.198,-2.689,-4.235,-1.366,3.685,1.460,-0.534,0.041,0.980,-0.282,-0.397,0.641,0.183,100.000,74855.000,1.000
-6.108,1.090,-2.113,-4.051,-1.106,4.211,1.946,-0.859,0.041,0.979,-0.281,-0.336,0.732,0.214,100.000,74856.000,1.000
-5.968,0.957,-1.773,-3.480,-0.888,4.127,1.607,-1.241,0.043,0.979,-0.281,-0.244,0.732,0.366,100.000,74857.000,1.000
-6.085,0.581,-2.098,-3.174,-1.037,3.446,0.641,-1.526,0.041,0.982,-0.279,-0.397,0.641,0.427,100.000,74858.000,1.000
-6.549,-0.033,-3.112,-3.492,-1.524,2.552,-0.386,-1.601,0.039,0.981,-0.282,-0.366,0.671,0.305,100.000,74859.000,1.000
-7.186,-0.721,-4.491,-4.386,-2.036,1.972,-0.978,-1.589,0.040,0.981,-0.283,-0.275,0.793,0.366,100.000,74860.000,1.000
-7.824,-1.337,-5.794,-5.518,-2.214,2.078,-0.899,-1.704,0.040,0.980,-0.282,-0.275,0.793,0.336,100.000,74861.000,1.000
-8.346,-1.872,-6.691,-6.463,-1.896,2.842,-0.151,-2.008,0.042,0.978,-0.282,-0.244,0.793,0.366,100.000,74862.000,1.000
-8.515,-2.355,-6.991,-6.851,-1.160,3.888,1.071,-2.279,0.042,0.980,-0.281,-0.214,0.854,0.275,100.000,74863.000,1.000
-8.029,-2.758,-6.604,-6.466,-0.208,4.735,2.408,-2.187,0.041,0.980,-0.282,-0.153,0.854,0.214,100.000,74864.000,1.000
-6.842,-3.057,-5.611,-5.356,0.724,4.994,3.437,-1.608,0.041,0.981,-0.280,-0.122,0.854,0.244,100.000,74865.000,1.000
-5.227,-3.223,-4.284,-3.864,1.458,4.590,3.932,-0.628,0.040,0.979,-0.282,-0.031,0.854,0.214,100.000,74866.000,1.000
-3.458,-3.158,-2.909,-2.440,2.008,3.847,4.072,0.740,0.042,0.980,-0.281,-0.122,0.793,0.305,100.000,74867.000,1.000
-1.620,-2.754,-1.624,-1.354,2.572,3.246,4.247,2.560,0.046,0.982,-0.283,-0.061,0.885,0.366,100.000,74868.000,1.000
0.166,-2.041,-0.524,-0.685,3.246,3.036,4.537,4.563,0.046,0.983,-0.282,-0.153,0.854,0.366,100.000,74869.000,1.000
1.520,-1.263,0.202,-0.505,3.769,3.108,4.543,5.996,0.046,0.984,-0.283,-0.183,0.916,0.366,100.000,74870.000,1.000
2.050,-0.729,0.445,-0.776,3.787,3.202,3.890,6.208,0.044,0.984,-0.284,-0.183,0.885,0.305,100.000,74871.000,1.000
1.855,-0.525,0.482,-1.053,3.370,3.202,2.813,5.366,0.043,0.983,-0.283,-0.275,0.916,0.183,100.000,74872.000,1.000
1.597,-0.383,0.904,-0.604,3.063,3.201,2.072,4.338,0.043,0.982,-0.282,-0.336,0.854,0.458,100.000,74873.000,1.000
1.969,0.065,2.105,0.961,3.352,3.290,2.236,3.879,0.042,0.981,-0.286,-0.366,0.916,0.519,100.000,74874.000,1.000
3.153,0.981,3.947,3.286,4.179,3.371,3.052,4.051,0.040,0.981,-0.282,-0.458,0.854,0.488,100.000,74875.000,1.000
4.814,2.259,5.897,5.552,4.983,3.216,3.614,4.328,0.040,0.982,-0.281,-0.458,0.824,0.397,100.000,74876.000,1.000
6.393,3.566,7.388,7.030,5.137,2.654,3.206,4.139,0.039,0.982,-0.283,-0.641,0.732,0.427,100.000,74877.000,1.000
7.379,4.465,8.071,7.442,4.430,1.729,1.885,3.457,0.036,0.982,-0.283,-0.610,0.671,0.305,100.000,74878.000,1.000
7.534,4.674,7.904,7.038,3.199,0.646,0.305,2.883,0.035,0.982,-0.282,-0.641,0.580,0.214,100.000,74879.000,1.000
6.986,4.222,7.069,6.324,2.040,-0.365,-0.822,3.027,0.034,0.982,-0.282,-0.763,0.488,0.092,100.000,74880.000,1.000
6.025,3.332,5.784,5.632,1.344,-1.111,-1.129,3.885,0.034,0.984,-0.282,-0.732,0.244,-0.031,100.000,74881.000,1.000
4.739,2.167,4.119,4.892,1.024,-1.536,-0.783,4.809,0.033,0.983,-0.282,-0.824,0.122,0.061,100.000,74882.000,1.000
2.873,0.712,1.902,3.688,0.519,-1.849,-0.420,4.956,0.034,0.983,-0.280,-1.007,-0.031,-0.061,100.000,74883.000,1.000
0.156,-1.060,-1.054,1.588,-0.825,-2.405,-0.692,3.817,0.033,0.982,-0.280,-1.068,-0.122,-0.092,100.000,74884.000,1.000
-3.220,-2.935,-4.566,-1.402,-3.160,-3.312,-1.675,1.598,0.035,0.982,-0.281,-1.160,-0.336,-0.061,100.000,74885.000,1.000
-6.531,-4.564,-8.013,-4.664,-5.923,-4.242,-2.783,-0.823,0.034,0.982,-0.279,-1.190,-0.488,-0.122,100.000,74886.000,1.000
-8.837,-5.706,-10.603,-7.144,-8.167,-4.696,-3.246,-2.365,0.036,0.981,-0.279,-1.190,-0.580,-0.092,100.000,74887.000,1.000
-9.348,-6.195,-11.610,-7.724,-8.948,-4.323,-2.511,-2.246,0.037,0.979,-0.279,-1.129,-0.702,-0.092,100.000,74888.000,1.000
-7.734,-5.805,-10.581,-5.788,-7.662,-2.985,-0.365,-0.230,0.035,0.979,-0.279,-1.160,-0.763,0.061,100.000,74889.000,1.000
-4.281,-4.359,-7.582,-1.675,-4.382,-0.800,2.921,3.302,0.037,0.976,-0.280,-1.038,-0.977,0.000,100.000,74890.000,1.000
0.140,-1.946,-3.310,3.459,0.031,1.791,6.433,7.345,0.037,0.976,-0.282,-1.007,-0.977,0.122,100.000,74891.000,1.000
4.239,0.937,1.056,8.098,4.242,4.098,8.875,10.499,0.039,0.976,-0.279,-0.946,-1.007,-0.122,100.000,74892.000,1.000
6.731,3.468,4.248,10.843,7.013,5.404,9.225,11.555,0.042,0.974,-0.282,-0.885,-1.099,0.000,100.000,74893.000,1.000
6.979,4.891,5.455,10.987,7.722,5.234,7.251,10.121,0.043,0.977,-0.282,-0.824,-1.221,0.122,100.000,74894.000,1.000
5.329,4.901,4.664,8.848,6.525,3.587,3.592,6.767,0.041,0.980,-0.284,-0.702,-1.190,-0.031,100.000,74895.000,1.000
2.717,3.632,2.467,5.393,4.070,0.981,-0.608,2.592,0.042,0.979,-0.282,-0.732,-1.160,-0.031,100.000,74896.000,1.000
-0.071,1.389,-0.442,1.526,1.028,-1.819,-4.324,-1.439,0.041,0.981,-0.282,-0.793,-1.190,0.061,100.000,74897.000,1.000
-2.633,-1.421,-3.503,-2.172,-2.099,-4.159,-7.013,-4.768,0.041,0.979,-0.280,-0.885,-1.038,-0.031,100.000,74898.000,1.000
-4.581,-4.115,-6.079,-5.185,-4.810,-5.587,-8.401,-7.052,0.041,0.976,-0.283,-0.793,-1.099,-0.244,100.000,74899.000,1.000
-5.360,-5.836,-7.430,-6.948,-6.559,-5.861,-8.306,-8.028,0.042,0.974,-0.283,-0.824,-1.068,-0.214,100.000,74900.000,1.000
-4.730,-6.121,-7.230,-7.315,-7.089,-5.113,-6.815,-7.736,0.043,0.979,-0.284,-0.671,-0.916,-0.458,100.000,74901.000,1.000
-3.202,-5.221,-5.945,-6.852,-6.659,-3.822,-4.409,-6.616,0.044,0.980,-0.280,-0.732,-0.824,-0.519,100.000,74902.000,1.000
-1.760,-3.835,-4.472,-6.374,-5.841,-2.533,-1.824,-5.227,0.047,0.980,-0.278,-0.763,-0.702,-0.519,100.000,74903.000,1.000
-1.232,-2.693,-3.554,-6.344,-5.195,-1.702,0.098,-4.017,0.047,0.978,-0.281,-0.732,-0.549,-0.641,100.000,74904.000,1.000
-1.895,-2.285,-3.484,-6.769,-5.045,-1.629,0.684,-3.300,0.045,0.973,-0.284,-0.793,-0.366,-0.671,100.000,74905.000,1.000
-3.392,-2.654,-4.051,-7.354,-5.311,-2.309,-0.101,-3.122,0.045,0.972,-0.282,-0.671,-0.275,-0.641,100.000,74906.000,1.000
-4.928,-3.367,-4.683,-7.685,-5.527,-3.398,-1.517,-3.177,0.044,0.971,-0.286,-0.488,-0.061,-0.580,100.000,74907.000,1.000
-5.787,-3.844,-4.855,-7.553,-5.228,-4.396,-2.629,-3.172,0.044,0.971,-0.289,-0.336,-0.031,-0.549,100.000,74908.000,1.000
-5.699,-3.705,-4.400,-7.096,-4.304,-4.876,-2.911,-3.099,0.043,0.973,-0.288,-0.305,0.183,-0.397,100.000,74909.000,1.000
-4.756,-2.818,-3.418,-6.513,-2.959,-4.626,-2.346,-2.920,0.044,0.975,-0.285,-0.122,0.244,-0.458,100.000,74910.000,1.000
-3.297,-1.379,-2.169,-5.897,-1.619,-3.832,-1.359,-2.438,0.044,0.978,-0.287,-0.061,0.305,-0.244,100.000,74911.000,1.000
-1.786,0.053,-1.054,-5.350,-0.852,-3.080,-0.672,-1.721,0.043,0.980,-0.285,-0.122,0.427,-0.214,100.000,74912.000,1.000
-0.542,0.925,-0.400,-4.981,-1.071,-2.934,-0.861,-1.211,0.039,0.983,-0.282,-0.153,0.580,-0.092,100.000,74913.000,1.000
0.280,0.924,-0.337,-4.838,-2.311,-3.549,-2.021,-1.363,0.039,0.984,-0.285,-0.092,0.580,-0.092,100.000,74914.000,1.000
0.473,-0.098,-0.905,-4.914,-4.278,-4.683,-3.780,-2.342,0.037,0.985,-0.282,-0.061,0.671,-0.031,100.000,74915.000,1.000
-0.094,-1.969,-1.984,-5.106,-6.382,-5.827,-5.443,-3.927,0.036,0.987,-0.281,-0.183,0.824,0.000,100.000,74916.000,1.000
-1.116,-3.917,-3.054,-5.087,-7.777,-6.311,-6.224,-5.489,0.035,0.986,-0.281,-0.275,0.793,0.031,100.000,74917.000,1.000
-1.928,-4.888,-3.378,-4.413,-7.761,-5.622,-5.672,-6.246,0.034,0.988,-0.284,-0.397,0.671,-0.031,100.000,74918.000,1.000
-2.022,-4.423,-2.619,-2.965,-6.340,-3.829,-3.957,-5.841,0.032,0.989,-0.282,-0.641,0.549,-0.092,100.000,74919.000,1.000
-1.326,-2.967,-1.067,-1.084,-4.181,-1.574,-1.645,-4.550,0.031,0.990,-0.279,-0.763,0.427,-0.183,100.000,74920.000,1.000
0.050,-1.261,0.797,0.871,-1.947,0.434,0.698,-2.839,0.031,0.988,-0.280,-1.007,0.427,-0.275,100.000,74921.000,1.000
1.933,0.213,2.639,2.751,0.046,1.806,2.588,-1.028,0.032,0.988,-0.280,-1.099,0.427,-0.305,100.000,74922.000,1.000
3.822,1.161,4.126,4.283,1.594,2.487,3.590,0.553,0.032,0.990,-0.279,-1.221,0.366,-0.214,100.000,74923.000,1.000
4.956,1.340,4.871,4.979,2.454,2.668,3.484,1.450,0.031,0.986,-0.280,-1.373,0.183,-0.336,100.000,74924.000,1.000
4.904,0.733,4.705,4.583,2.537,2.652,2.444,1.349,0.031,0.988,-0.281,-1.495,0.061,-0.458,100.000,74925.000,1.000
3.867,-0.320,3.819,3.348,1.961,2.601,0.904,0.301,0.032,0.987,-0.279,-1.617,-0.092,-0.458,100.000,74926.000,1.000
2.346,-1.392,2.537,1.734,0.855,2.375,-0.724,-1.374,0.031,0.986,-0.277,-1.740,-0.244,-0.427,100.000,74927.000,1.000
0.818,-2.221,1.105,0.080,-0.712,1.699,-2.217,-3.249,0.033,0.984,-0.278,-1.740,-0.336,-0.305,100.000,74928.000,1.000
-0.304,-2.662,-0.243,-1.390,-2.530,0.524,-3.451,-4.848,0.032,0.982,-0.278,-1.770,-0.488,-0.214,100.000,74929.000,1.000
-0.797,-2.691,-1.351,-2.572,-4.245,-0.869,-4.290,-5.785,0.031,0.983,-0.276,-1.831,-0.580,-0.153,100.000,74930.000,1.000
-0.797,-2.507,-2.310,-3.612,-5.627,-2.087,-4.678,-6.107,0.033,0.983,-0.277,-1.831,-0.671,-0.183,100.000,74931.000,1.000
-0.544,-2.315,-3.229,-4.624,-6.571,-2.839,-4.715,-6.298,0.033,0.983,-0.279,-1.953,-0.793,-0.061,100.000,74932.000,1.000
0.047,-2.014,-3.847,-5.276,-6.864,-2.973,-4.530,-6.702,0.034,0.981,-0.280,-1.953,-0.885,0.092,100.000,74933.000,1.000
1.216,-1.360,-3.751,-5.070,-6.278,-2.497,-4.167,-7.172,0.035,0.980,-0.277,-1.862,-0.946,0.183,100.000,74934.000,1.000
2.800,-0.383,-2.946,-4.010,-4.927,-1.623,-3.618,-7.313,0.033,0.977,-0.279,-1.923,-1.007,0.244,100.000,74935.000,1.000
4.142,0.557,-1.917,-2.641,-3.287,-0.679,-2.913,-6.868,0.033,0.979,-0.277,-1.923,-0.977,0.214,100.000,74936.000,1.000
4.592,1.089,-1.178,-1.540,-1.861,0.130,-2.181,-5.944,0.035,0.979,-0.275,-1.862,-1.007,0.305,100.000,74937.000,1.000
3.912,1.080,-0.973,-1.009,-0.929,0.814,-1.608,-4.909,0.035,0.976,-0.276,-1.831,-1.068,0.214,100.000,74938.000,1.000
2.311,0.610,-1.288,-1.052,-0.542,1.352,-1.319,-4.083,0.036,0.978,-0.273,-1.831,-1.068,0.122,100.000,74939.000,1.000
0.432,-0.008,-1.790,-1.335,-0.457,1.645,-1.201,-3.445,0.039,0.975,-0.277,-1.831,-0.977,-0.092,100.000,74940.000,1.000
-0.827,-0.200,-1.844,-1.223,-0.104,1.800,-0.870,-2.589,0.040,0.976,-0.277,-1.770,-1.007,-0.122,100.000,74941.000,1.000
-0.954,0.476,-1.012,-0.245,1.038,2.161,0.000,-1.100,0.041,0.974,-0.277,-1.617,-0.977,-0.092,100.000,74942.000,1.000
-0.246,1.911,0.530,1.492,2.998,2.971,1.375,1.027,0.041,0.970,-0.279,-1.434,-0.916,-0.031,100.000,74943.000,1.000
0.530,3.536,2.208,3.412,5.337,4.085,2.842,3.372,0.041,0.970,-0.279,-1.282,-0.885,-0.122,100.000,74944.000,1.000
0.756,4.754,3.484,4.819,7.460,4.964,3.826,5.306,0.042,0.972,-0.277,-1.099,-0.671,-0.061,100.000,74945.000,1.000
0.299,5.235,4.079,5.165,8.873,4.951,3.924,6.297,0.043,0.971,-0.277,-0.793,-0.549,-0.214,100.000,74946.000,1.000
-0.543,4.936,3.929,4.270,9.247,3.646,3.149,6.248,0.042,0.972,-0.274,-0.671,-0.244,-0.031,100.000,74947.000,1.000
-1.347,4.091,3.126,2.452,8.494,1.265,1.914,5.503,0.044,0.971,-0.278,-0.549,-0.092,0.092,100.000,74948.000,1.000
-1.794,3.203,1.974,0.475,6.909,-1.254,0.787,4.511,0.043,0.970,-0.280,-0.305,0.031,0.153,100.000,74949.000,1.000
-1.701,2.833,0.989,-0.701,5.144,-2.743,0.209,3.625,0.046,0.972,-0.281,-0.153,0.214,0.183,100.000,74950.000,1.000
-0.999,3.262,0.682,-0.350,3.879,-2.629,0.341,3.172,0.044,0.972,-0.281,0.031,0.397,0.336,100.000,74951.000,1.000
0.217,4.343,1.259,1.520,3.456,-1.266,1.032,3.410,0.042,0.973,-0.279,0.244,0.519,0.305,100.000,74952.000,1.000
1.660,5.614,2.480,4.031,3.742,0.460,1.922,4.267,0.043,0.977,-0.277,0.336,0.702,0.397,100.000,74953.000,1.000
2.930,6.566,3.846,6.027,4.336,1.727,2.620,5.260,0.044,0.976,-0.277,0.366,0.946,0.427,100.000,74954.000,1.000
3.732,6.995,4.981,6.858,4.928,2.185,2.838,5.830,0.043,0.979,-0.279,0.458,1.099,0.549,100.000,74955.000,1.000
4.088,7.156,5.860,6.644,5.527,2.081,2.601,5.796,0.041,0.980,-0.279,0.488,1.221,0.488,100.000,74956.000,1.000
4.346,7.522,6.758,6.041,6.400,2.018,2.387,5.501,0.043,0.983,-0.279,0.458,1.373,0.610,100.000,74957.000,1.000
4.938,8.307,7.951,5.760,7.723,2.392,2.763,5.470,0.043,0.984,-0.277,0.397,1.312,0.610,100.000,74958.000,1.000
6.048,9.227,9.389,6.081,9.231,2.998,3.710,5.844,0.043,0.984,-0.276,0.275,1.373,0.610,100.000,74959.000,1.000
7.403,9.712,10.569,6.617,10.205,3.265,4.470,6.083,0.043,0.987,-0.277,0.244,1.434,0.488,100.000,74960.000,1.000
8.384,9.281,10.813,6.588,9.877,2.817,4.114,5.277,0.042,0.988,-0.278,0.183,1.495,0.519,100.000,74961.000,1.000
8.520,7.785,9.807,5.537,7.990,1.755,2.353,3.028,0.041,0.986,-0.279,0.092,1.587,0.458,100.000,74962.000,1.000
7.848,5.457,7.885,3.785,5.057,0.507,-0.118,0.013,0.039,0.987,-0.279,0.031,1.526,0.549,100.000,74963.000,1.000
6.727,2.792,5.712,2.123,2.044,-0.528,-2.091,-2.448,0.039,0.988,-0.281,-0.061,1.617,0.610,100.000,74964.000,1.000
5.378,0.224,3.715,1.090,-0.275,-1.212,-2.680,-3.335,0.039,0.986,-0.281,-0.061,1.617,0.427,100.000,74965.000,1.000
3.753,-2.116,1.875,0.618,-1.700,-1.603,-1.812,-2.466,0.038,0.989,-0.281,-0.183,1.648,0.580,100.000,74966.000,1.000
1.812,-4.242,0.040,0.337,-2.437,-1.755,-0.071,-0.387,0.036,0.987,-0.278,-0.336,1.617,0.397,100.000,74967.000,1.000
-0.256,-6.078,-1.768,-0.016,-2.799,-1.708,1.696,1.897,0.034,0.986,-0.279,-0.458,1.587,0.366,100.000,74968.000,1.000
-2.127,-7.503,-3.398,-0.554,-3.124,-1.608,2.666,3.206,0.035,0.981,-0.279,-0.641,1.434,0.092,100.000,74969.000,1.000
-3.532,-8.491,-4.672,-1.321,-3.702,-1.664,2.394,2.746,0.035,0.980,-0.283,-0.641,1.282,0.092,100.000,74970.000,1.000
-4.388,-9.088,-5.410,-2.254,-4.594,-1.981,1.081,0.670,0.035,0.980,-0.283,-0.610,1.190,0.153,100.000,74971.000,1.000
-4.696,-9.226,-5.362,-3.041,-5.441,-2.409,-0.490,-1.978,0.037,0.981,-0.282,-0.549,1.129,0.244,100.000,74972.000,1.000
-4.236,-8.609,-4.178,-3.115,-5.507,-2.579,-1.350,-3.824,0.036,0.985,-0.283,-0.458,1.099,0.336,100.000,74973.000,1.000
-2.713,-7.043,-1.706,-2.049,-4.204,-2.208,-0.929,-3.972,0.038,0.985,-0.282,-0.549,0.916,0.336,100.000,74974.000,1.000
-0.275,-4.833,1.648,-0.010,-1.693,-1.417,0.487,-2.626,0.035,0.983,-0.282,-0.549,0.793,0.397,100.000,74975.000,1.000
2.419,-2.575,5.084,2.348,1.209,-0.621,1.953,-0.864,0.035,0.981,-0.281,-0.732,0.549,0.397,100.000,74976.000,1.000
4.599,-0.708,7.840,4.371,3.706,-0.154,2.688,0.375,0.036,0.977,-0.283,-0.641,0.458,0.580,100.000,74977.000,1.000
5.654,0.517,9.379,5.675,5.459,-0.068,2.703,1.037,0.038,0.975,-0.283,-0.397,0.397,0.580,100.000,74978.000,1.000
5.299,0.940,9.476,6.155,6.514,-0.158,2.681,1.759,0.038,0.973,-0.281,-0.305,0.366,0.610,100.000,74979.000,1.000
3.837,0.701,8.451,6.037,7.130,-0.047,3.320,3.167,0.036,0.976,-0.280,-0.214,0.214,0.702,100.000,74980.000,1.000
2.129,0.360,7.117,5.828,7.607,0.565,4.751,5.287,0.034,0.974,-0.279,-0.092,0.214,0.458,100.000,74981.000,1.000
1.068,0.559,6.278,5.954,8.060,1.545,6.367,7.497,0.035,0.975,-0.279,0.092,-0.031,0.397,100.000,74982.000,1.000
1.044,1.599,6.262,6.413,8.342,2.391,7.225,8.958,0.035,0.973,-0.278,0.061,-0.122,0.244,100.000,74983.000,1.000
1.808,3.255,6.839,6.777,8.199,2.722,6.730,9.104,0.035,0.974,-0.281,0.183,-0.214,0.183,100.000,74984.000,1.000
2.777,4.920,7.476,6.590,7.515,2.649,5.121,7.933,0.035,0.974,-0.284,0.244,-0.336,0.061,100.000,74985.000,1.000
3.500,6.019,7.776,5.836,6.495,2.682,3.331,6.052,0.038,0.977,-0.282,0.336,-0.336,-0.031,100.000,74986.000,1.000
3.802,6.291,7.635,4.901,5.420,3.137,2.094,4.157,0.039,0.977,-0.284,0.488,-0.549,0.031,100.000,74987.000,1.000
3.609,5.768,7.059,4.083,4.259,3.647,1.220,2.354,0.040,0.976,-0.284,0.488,-0.549,-0.183,100.000,74988.000,1.000
3.038,4.847,6.200,3.488,2.903,3.605,0.138,0.428,0.042,0.975,-0.284,0.549,-0.458,-0.244,100.000,74989.000,1.000
2.550,4.240,5.453,3.238,1.595,2.929,-1.143,-1.343,0.043,0.975,-0.286,0.580,-0.488,-0.275,100.000,74990.000,1.000
2.485,4.375,5.057,3.306,0.660,1.995,-2.129,-2.373,0.044,0.976,-0.286,0.671,-0.427,-0.275,100.000,74991.000,1.000
2.598,4.950,4.698,3.318,0.004,1.170,-2.504,-2.583,0.044,0.977,-0.284,0.732,-0.397,-0.244,100.000,74992.000,1.000
2.366,5.351,3.884,2.890,-0.672,0.811,-2.275,-2.401,0.044,0.976,-0.283,0.854,-0.336,-0.275,100.000,74993.000,1.000
1.501,5.245,2.498,1.971,-1.436,1.244,-1.649,-2.112,0.043,0.979,-0.285,0.854,-0.305,-0.336,100.000,74994.000,1.000
0.020,4.605,0.819,0.762,-2.163,2.320,-1.044,-1.702,0.044,0.979,-0.286,0.885,-0.275,-0.397,100.000,74995.000,1.000
-1.917,3.438,-0.795,-0.519,-2.796,3.321,-0.952,-1.225,0.044,0.982,-0.284,0.885,-0.275,-0.397,100.000,74996.000,1.000
-4.037,1.705,-2.111,-1.693,-3.382,3.545,-1.533,-0.873,0.042,0.983,-0.283,0.824,-0.214,-0.397,100.000,74997.000,1.000
-5.946,-0.490,-3.045,-2.592,-3.964,2.798,-2.453,-0.753,0.041,0.985,-0.283,0.732,-0.153,-0.275,100.000,74998.000,1.000
-7.317,-2.736,-3.669,-3.128,-4.546,1.369,-3.191,-0.837,0.040,0.984,-0.283,0.702,-0.153,-0.214,100.000,74999.000,1.000
-8.112,-4.432,-4.191,-3.387,-5.098,-0.262,-3.417,-1.036,0.038,0.982,-0.281,0.580,-0.153,-0.275,100.000,75000.000,1.000
-8.615,-5.154,-4.896,-3.656,-5.612,-1.700,-3.123,-1.270,0.037,0.983,-0.282,0.519,-0.092,-0.427,100.000,75001.000,1.000
-9.231,-4.936,-6.026,-4.307,-6.154,-2.769,-2.550,-1.586,0.036,0.986,-0.280,0.427,-0.153,-0.549,100.000,75002.000,1.000
-10.083,-4.125,-7.525,-5.420,-6.747,-3.431,-1.997,-2.126,0.039,0.986,-0.281,0.153,-0.092,-0.458,100.000,75003.000,1.000
-10.882,-3.109,-8.983,-6.564,-7.240,-3.678,-1.617,-2.914,0.039,0.986,-0.283,-0.061,-0.183,-0.549,100.000,75004.000,1.000
-11.344,-2.300,-10.025,-7.185,-7.473,-3.549,-1.379,-3.763,0.039,0.986,-0.285,-0.153,-0.153,-0.397,100.000,75005.000,1.000
-11.468,-2.076,-10.592,-7.052,-7.423,-3.126,-1.163,-4.341,0.038,0.986,-0.285,-0.275,-0.153,-0.366,100.000,75006.000,1.000
-11.359,-2.492,-10.806,-6.311,-7.156,-2.430,-0.951,-4.412,0.040,0.987,-0.286,-0.305,-0.031,-0.366,100.000,75007.000,1.000
-11.025,-3.224,-10.782,-5.350,-6.789,-1.449,-0.896,-4.099,0.038,0.985,-0.284,-0.336,-0.092,-0.122,100.000,75008.000,1.000
-10.332,-3.803,-10.526,-4.478,-6.365,-0.278,-1.050,-3.645,0.037,0.984,-0.283,-0.519,-0.092,-0.183,100.000,75009.000,1.000
-9.097,-3.863,-9.887,-3.676,-5.754,0.845,-1.149,-2.982,0.037,0.984,-0.285,-0.671,-0.122,-0.031,100.000,75010.000,1.000
-7.425,-3.352,-8.828,-2.874,-4.893,1.588,-0.949,-1.947,0.039,0.984,-0.282,-0.763,-0.122,-0.092,100.000,75011.000,1.000
-5.944,-2.678,-7.787,-2.387,-4.093,1.611,-0.637,-0.759,0.038,0.985,-0.283,-0.885,-0.092,-0.061,100.000,75012.000,1.000
-5.475,-2.502,-7.502,-2.734,-3.837,0.795,-0.587,0.036,0.037,0.983,-0.284,-1.038,-0.031,-0.122,100.000,75013.000,1.000
-6.314,-3.165,-8.318,-4.011,-4.220,-0.534,-0.884,0.076,0.036,0.982,-0.285,-1.099,0.000,-0.061,100.000,75014.000,1.000
-7.872,-4.372,-9.808,-5.688,-4.785,-1.793,-1.337,-0.489,0.035,0.981,-0.286,-1.129,-0.092,-0.092,100.000,75015.000,1.000
-9.126,-5.526,-11.185,-7.086,-4.975,-2.596,-1.793,-1.209,0.035,0.981,-0.283,-1.068,-0.183,-0.061,100.000,75016.000,1.000
-9.264,-6.165,-11.813,-7.755,-4.506,-2.874,-2.043,-1.664,0.035,0.981,-0.281,-1.068,-0.183,-0.183,100.000,75017.000,1.000
-7.900,-5.952,-11.247,-7.379,-3.278,-2.577,-1.616,-1.452,0.034,0.981,-0.281,-1.160,-0.092,-0.092,100.000,75018.000,1.000
-5.091,-4.684,-9.283,-5.794,-1.379,-1.629,-0.190,-0.316,0.035,0.978,-0.281,-1.129,-0.092,-0.153,100.000,75019.000,1.000
-1.423,-2.592,-6.267,-3.291,0.705,-0.187,1.839,1.467,0.036,0.977,-0.280,-1.160,-0.122,-0.092,100.000,75020.000,1.000
2.169,-0.360,-3.079,-0.600,2.255,1.376,3.599,3.189,0.038,0.975,-0.282,-1.251,-0.153,-0.061,100.000,75021.000,1.000
4.783,1.172,-0.712,1.468,2.721,2.660,4.368,4.206,0.037,0.975,-0.285,-1.129,-0.214,-0.031,100.000,75022.000,1.000
5.791,1.337,0.097,2.288,1.914,3.210,3.740,4.137,0.036,0.976,-0.282,-1.068,-0.244,-0.183,100.000,75023.000,1.000
5.057,0.032,-0.856,1.672,0.094,2.632,1.678,2.919,0.036,0.977,-0.282,-1.007,-0.183,-0.122,100.000,75024.000,1.000
3.173,-2.060,-3.028,0.100,-1.946,0.980,-1.217,0.991,0.037,0.978,-0.283,-0.885,-0.122,-0.183,100.000,75025.000,1.000
1.351,-3.819,-5.280,-1.481,-3.192,-1.175,-3.797,-0.820,0.038,0.976,-0.282,-0.854,-0.061,-0.153,100.000,75026.000,1.000
0.802,-4.369,-6.432,-2.262,-3.002,-3.074,-5.017,-1.776,0.037,0.974,-0.284,-0.732,-0.122,-0.183,100.000,75027.000,1.000
2.071,-3.480,-5.829,-1.939,-1.448,-4.142,-4.544,-1.579,0.038,0.975,-0.284,-0.641,-0.153,-0.275,100.000,75028.000,1.000
4.729,-1.640,-3.663,-0.736,0.727,-4.267,-2.964,-0.538,0.038,0.975,-0.283,-0.580,-0.153,-0.214,100.000,75029.000,1.000
7.628,0.171,-0.871,0.749,2.482,-3.789,-1.364,0.488,0.038,0.975,-0.283,-0.610,-0.061,-0.275,100.000,75030.000,1.000
9.638,1.103,1.473,1.914,3.139,-3.106,-0.459,0.740,0.037,0.975,-0.283,-0.519,-0.092,-0.153,100.000,75031.000,1.000
10.149,0.968,2.682,2.423,2.714,-2.394,-0.192,0.166,0.037,0.975,-0.281,-0.336,0.000,-0.153,100.000,75032.000,1.000
9.085,0.115,2.496,2.065,1.612,-1.717,-0.233,-0.767,0.038,0.977,-0.281,-0.336,-0.092,-0.153,100.000,75033.000,1.000
6.788,-1.054,0.952,0.637,0.153,-1.179,-0.463,-1.632,0.038,0.980,-0.281,-0.183,-0.031,-0.122,100.000,75034.000,1.000
3.869,-2.396,-1.677,-1.906,-1.622,-0.934,-0.948,-2.341,0.038,0.980,-0.282,-0.214,-0.092,-0.214,100.000,75035.000,1.000
1.024,-3.908,-4.844,-5.183,-3.794,-1.142,-1.745,-3.088,0.037,0.979,-0.281,-0.153,0.000,-0.092,100.000,75036.000,1.000
-1.060,-5.379,-7.683,-8.312,-6.172,-1.826,-2.721,-3.971,0.035,0.978,-0.281,-0.122,0.000,-0.092,100.000,75037.000,1.000
-1.926,-6.419,-9.345,-10.351,-8.249,-2.847,-3.492,-4.717,0.034,0.979,-0.279,-0.092,-0.031,0.031,100.000,75038.000,1.000
-1.765,-6.895,-9.617,-10.964,-9.621,-4.034,-3.707,-4.939,0.036,0.981,-0.282,-0.122,0.092,0.031,100.000,75039.000,1.000
-1.369,-6.959,-8.960,-10.488,-10.156,-5.120,-3.336,-4.487,0.035,0.982,-0.283,-0.122,0.122,0.000,100.000,75040.000,1.000
-1.497,-6.628,-7.899,-9.384,-9.745,-5.620,-2.608,-3.457,0.038,0.984,-0.281,-0.122,0.153,-0.031,100.000,75041.000,1.000
-2.451,-5.770,-6.725,-7.956,-8.338,-5.133,-1.850,-2.113,0.038,0.985,-0.280,-0.183,0.122,-0.061,100.000,75042.000,1.000
-4.141,-4.480,-5.679,-6.541,-6.233,-3.763,-1.456,-0.893,0.038,0.985,-0.281,-0.336,0.061,-0.092,100.000,75043.000,1.000
-6.211,-3.161,-4.987,-5.565,-4.051,-2.032,-1.706,-0.267,0.039,0.985,-0.284,-0.366,0.122,0.061,100.000,75044.000,1.000
-8.016,-2.227,-4.641,-5.288,-2.365,-0.477,-2.533,-0.551,0.042,0.984,-0.283,-0.427,0.214,0.061,100.000,75045.000,1.000
-8.783,-1.821,-4.349,-5.586,-1.429,0.519,-3.596,-1.851,0.040,0.982,-0.283,-0.488,0.244,0.061,100.000,75046.000,1.000
-8.103,-1.798,-3.791,-6.029,-1.192,0.749,-4.562,-3.961,0.040,0.981,-0.283,-0.549,0.366,0.214,100.000,75047.000,1.000
-6.201,-1.794,-2.768,-6.043,-1.318,0.394,-5.098,-6.120,0.040,0.982,-0.283,-0.549,0.458,0.336,100.000,75048.000,1.000
-3.708,-1.298,-1.182,-5.132,-1.290,0.062,-4.824,-7.223,0.040,0.981,-0.282,-0.519,0.458,0.275,100.000,75049.000,1.000
-1.387,0.028,0.795,-3.275,-0.813,0.276,-3.660,-6.673,0.039,0.983,-0.283,-0.519,0.458,0.275,100.000,75050.000,1.000
0.041,1.944,2.617,-1.135,-0.094,0.977,-2.085,-4.920,0.039,0.983,-0.283,-0.610,0.549,0.336,100.000,75051.000,1.000
0.264,3.791,3.752,0.440,0.473,1.697,-0.806,-3.008,0.040,0.982,-0.281,-0.732,0.732,0.336,100.000,75052.000,1.000
-0.281,5.082,4.224,1.225,0.835,2.048,-0.175,-1.731,0.039,0.982,-0.281,-0.702,0.671,0.336,100.000,75053.000,1.000
-0.690,5.796,4.550,1.730,1.327,1.978,0.055,-1.184,0.038,0.984,-0.280,-0.854,0.702,0.275,100.000,75054.000,1.000
-0.354,6.143,5.171,2.542,2.242,1.739,0.356,-0.941,0.039,0.982,-0.280,-0.854,0.763,0.366,100.000,75055.000,1.000
0.646,6.198,6.083,3.795,3.498,1.695,0.871,-0.507,0.039,0.985,-0.280,-0.977,0.824,0.427,100.000,75056.000,1.000
1.797,5.796,6.952,5.169,4.726,2.026,1.327,0.356,0.039,0.987,-0.281,-1.099,0.854,0.305,100.000,75057.000,1.000
2.540,4.650,7.340,6.120,5.505,2.495,1.389,1.485,0.039,0.985,-0.278,-1.282,0.977,0.183,100.000,75058.000,1.000
2.532,2.636,6.927,6.192,5.515,2.547,0.958,2.408,0.039,0.984,-0.279,-1.282,0.916,0.305,100.000,75059.000,1.000
1.975,0.186,5.882,5.449,4.852,1.862,0.335,2.853,0.038,0.983,-0.281,-1.373,0.885,0.458,100.000,75060.000,1.000
1.642,-1.685,4.977,4.544,4.148,0.769,0.140,3.055,0.039,0.981,-0.282,-1.495,0.854,0.366,100.000,75061.000,1.000
2.186,-2.089,4.926,4.057,3.997,-0.102,0.689,3.214,0.038,0.982,-0.280,-1.526,0.824,0.427,100.000,75062.000,1.000
3.479,-0.955,5.695,3.902,4.342,-0.419,1.538,3.018,0.038,0.981,-0.280,-1.495,0.854,0.275,100.000,75063.000,1.000
4.844,1.070,6.689,3.668,4.718,-0.214,1.997,2.156,0.039,0.981,-0.280,-1.465,0.854,0.305,100.000,75064.000,1.000
5.732,3.148,7.414,3.252,4.852,0.381,1.909,0.916,0.039,0.980,-0.280,-1.526,0.793,0.244,100.000,75065.000,1.000
6.057,4.707,7.817,2.982,4.877,1.303,1.758,0.008,0.039,0.976,-0.279,-1.526,0.824,0.397,100.000,75066.000,1.000
6.051,5.661,8.145,3.242,5.103,2.550,2.152,-0.045,0.038,0.976,-0.281,-1.404,0.854,0.275,100.000,75067.000,1.000
5.931,6.202,8.546,4.015,5.592,3.916,3.157,0.586,0.037,0.976,-0.280,-1.373,0.732,0.336,100.000,75068.000,1.000
5.726,6.401,8.859,4.798,5.961,4.825,4.068,1.084,0.039,0.975,-0.281,-1.282,0.854,0.305,100.000,75069.000,1.000
5.366,6.101,8.762,4.990,5.674,4.702,3.969,0.671,0.036,0.976,-0.279,-1.221,0.732,0.031,100.000,75070.000,1.000
4.865,5.160,8.049,4.359,4.534,3.485,2.570,-0.695,0.036,0.976,-0.281,-1.038,0.641,0.153,100.000,75071.000,1.000
4.403,3.716,6.783,3.150,2.876,1.693,0.438,-2.322,0.037,0.977,-0.278,-1.068,0.610,0.183,100.000,75072.000,1.000
4.176,2.166,5.234,1.829,1.322,0.082,-1.446,-3.373,0.037,0.975,-0.281,-0.977,0.549,0.183,100.000,75073.000,1.000
4.200,0.952,3.747,0.772,0.396,-0.711,-2.234,-3.434,0.037,0.977,-0.283,-0.916,0.458,0.153,100.000,75074.000,1.000
4.278,0.382,2.642,0.193,0.305,-0.414,-1.617,-2.682,0.037,0.977,-0.282,-0.916,0.549,0.092,100.000,75075.000,1.000
4.163,0.577,2.121,0.192,0.893,0.665,-0.004,-1.651,0.035,0.978,-0.281,-0.732,0.458,0.061,100.000,75076.000,1.000
3.707,1.426,2.178,0.765,1.769,1.798,1.777,-0.764,0.036,0.978,-0.278,-0.641,0.305,0.061,100.000,75077.000,1.000
2.928,2.588,2.615,1.793,2.539,2.402,3.046,-0.006,0.038,0.977,-0.278,-0.580,0.244,0.244,100.000,75078.000,1.000
2.041,3.664,3.201,3.061,3.030,2.425,3.577,0.974,0.039,0.975,-0.281,-0.427,0.275,0.214,100.000,75079.000,1.000
1.406,4.458,3.806,4.317,3.355,2.194,3.587,2.469,0.039,0.975,-0.280,-0.366,0.244,0.092,100.000,75080.000,1.000
1.270,5.001,4.377,5.376,3.728,2.018,3.499,4.398,0.038,0.977,-0.282,-0.336,0.214,0.061,100.000,75081.000,1.000
1.464,5.273,4.793,6.088,4.228,1.992,3.608,6.356,0.040,0.978,-0.282,-0.244,0.153,-0.092,100.000,75082.000,1.000
1.479,5.059,4.844,6.256,4.769,2.076,3.950,7.901,0.038,0.978,-0.282,-0.153,0.122,0.000,100.000,75083.000,1.000
0.931,4.144,4.387,5.748,5.220,2.192,4.389,8.795,0.038,0.977,-0.281,-0.061,0.061,-0.153,100.000,75084.000,1.000
-0.164,2.551,3.472,4.659,5.505,2.231,4.764,9.111,0.038,0.977,-0.281,-0.061,0.092,-0.092,100.000,75085.000,1.000
-1.520,0.535,2.294,3.268,5.608,2.062,4.975,9.137,0.038,0.978,-0.281,-0.031,0.000,-0.092,100.000,75086.000,1.000
-2.694,-1.438,1.134,1.935,5.573,1.664,5.055,9.146,0.038,0.980,-0.282,0.000,-0.031,-0.122,100.000,75087.000,1.000
-3.118,-2.682,0.378,1.079,5.544,1.275,5.243,9.215,0.038,0.980,-0.282,0.122,-0.092,-0.153,100.000,75088.000,1.000
-2.369,-2.590,0.366,1.029,5.704,1.282,5.837,9.203,0.040,0.979,-0.282,0.214,-0.183,-0.153,100.000,75089.000,1.000
-0.575,-1.141,1.103,1.716,6.089,1.884,6.823,8.843,0.041,0.981,-0.284,0.092,-0.061,-0.183,100.000,75090.000,1.000
1.579,1.004,2.213,2.652,6.529,2.984,7.744,7.957,0.040,0.982,-0.283,0.153,-0.061,-0.183,100.000,75091.000,1.000
3.360,2.988,3.273,3.381,6.829,4.414,8.082,6.667,0.040,0.984,-0.283,0.092,-0.122,-0.092,100.000,75092.000,1.000
4.395,4.227,4.062,3.822,6.892,6.067,7.703,5.292,0.039,0.984,-0.282,-0.031,0.000,-0.031,100.000,75093.000,1.000
4.520,4.438,4.408,3.975,6.602,7.695,6.789,4.008,0.039,0.985,-0.283,-0.061,0.000,0.000,100.000,75094.000,1.000
3.547,3.518,4.024,3.595,5.768,8.737,5.509,2.801,0.041,0.986,-0.281,-0.214,-0.031,-0.031,100.000,75095.000,1.000
1.501,1.603,2.770,2.541,4.327,8.630,3.995,1.766,0.040,0.985,-0.282,-0.244,0.000,-0.031,100.000,75096.000,1.000
-1.100,-0.815,0.944,1.161,2.510,7.265,2.509,1.170,0.041,0.984,-0.282,-0.244,0.061,0.031,100.000,75097.000,1.000
-3.444,-2.981,-0.819,0.094,0.745,5.079,1.392,1.158,0.041,0.984,-0.279,-0.336,0.000,0.122,100.000,75098.000,1.000
-4.847,-4.191,-1.886,-0.116,-0.533,2.796,0.858,1.570,0.039,0.986,-0.281,-0.458,-0.092,0.122,100.000,75099.000,1.000
-4.962,-4.131,-1.927,0.709,-1.084,1.082,0.877,2.067,0.041,0.986,-0.283,-0.549,-0.031,-0.061,100.000,75100.000,1.000
-3.854,-3.087,-1.141,2.143,-1.080,0.169,1.165,2.341,0.039,0.987,-0.285,-0.610,-0.031,0.061,100.000,75101.000,1.000
-2.002,-1.861,-0.167,3.314,-1.110,-0.315,1.269,2.196,0.038,0.986,-0.282,-0.732,0.031,-0.031,100.000,75102.000,1.000
-0.021,-1.275,0.388,3.612,-1.744,-0.941,0.794,1.569,0.037,0.984,-0.281,-0.824,-0.092,0.061,100.000,75103.000,1.000
1.603,-1.668,0.311,3.073,-3.125,-1.930,-0.362,0.552,0.036,0.984,-0.283,-0.977,-0.092,0.092,100.000,75104.000,1.000
2.470,-2.864,-0.372,1.985,-5.055,-3.140,-2.053,-0.823,0.037,0.981,-0.283,-1.038,-0.153,0.092,100.000,75105.000,1.000
2.276,-4.439,-1.617,0.435,-7.276,-4.407,-4.140,-2.823,0.037,0.982,-0.279,-1.099,-0.275,0.061,100.000,75106.000,1.000
1.040,-5.948,-3.265,-1.629,-9.473,-5.643,-6.527,-5.713,0.037,0.984,-0.279,-1.190,-0.214,0.000,100.000,75107.000,1.000
-0.770,-7.007,-4.892,-4.049,-11.170,-6.630,-8.838,-9.100,0.036,0.985,-0.279,-1.282,-0.336,0.000,100.000,75108.000,1.000
-2.387,-7.269,-5.872,-6.301,-11.832,-6.915,-10.270,-11.789,0.037,0.984,-0.279,-1.282,-0.305,0.061,100.000,75109.000,1.000
-2.991,-6.375,-5.572,-7.547,-11.059,-6.031,-9.951,-12.389,0.040,0.982,-0.279,-1.373,-0.275,0.092,100.000,75110.000,1.000
-1.942,-4.100,-3.581,-6.821,-8.665,-3.852,-7.390,-9.971,0.038,0.982,-0.280,-1.434,-0.366,0.031,100.000,75111.000,1.000
0.897,-0.628,-0.043,-3.573,-4.814,-0.785,-2.737,-4.429,0.039,0.981,-0.282,-1.373,-0.214,-0.061,100.000,75112.000,1.000
4.882,3.295,4.123,1.709,-0.213,2.277,3.043,3.285,0.041,0.980,-0.281,-1.404,-0.153,0.122,100.000,75113.000,1.000
8.765,6.602,7.555,7.507,3.966,4.276,8.289,11.134,0.041,0.979,-0.279,-1.343,-0.183,0.061,100.000,75114.000,1.000
11.267,8.481,9.190,12.049,6.618,4.567,11.364,16.719,0.040,0.978,-0.278,-1.312,-0.153,0.153,100.000,75115.000,1.000
