EEG 1,EEG 2,EEG 3,EEG 4,EEG 5,EEG 6,EEG 7,EEG 8,Accelerometer X,Accelerometer Y,Accelerometer Z,Gyroscope X,Gyroscope Y,Gyroscope Z,Battery Level,Counter,Validation Indicator
3.039,-0.332,2.581,0.432,4.066,0.830,-2.499,-3.685,0.031,0.990,-0.247,0.031,0.946,-0.092,100.000,63513.000,1.000
2.545,-1.698,2.346,2.165,5.005,-4.899,-2.484,-5.628,0.030,0.985,-0.249,0.000,0.977,0.031,100.000,63514.000,1.000
2.714,-1.830,3.287,4.715,6.785,-8.769,-1.217,-6.431,0.030,0.983,-0.248,0.092,0.916,-0.092,100.000,63515.000,1.000
3.515,-0.838,5.074,7.660,8.851,-10.488,0.445,-5.893,0.030,0.982,-0.249,0.244,0.977,-0.092,100.000,63516.000,1.000
4.414,0.677,6.711,9.985,10.084,-10.638,1.410,-4.900,0.030,0.983,-0.252,0.153,1.038,-0.122,100.000,63517.000,1.000
4.752,2.048,7.165,10.798,9.589,-10.028,1.179,-4.376,0.029,0.984,-0.252,0.366,0.977,-0.092,100.000,63518.000,1.000
4.095,2.821,5.950,9.912,7.232,-9.189,-0.166,-4.429,0.030,0.987,-0.251,0.549,1.007,0.092,100.000,63519.000,1.000
2.332,2.709,3.185,7.699,3.541,-8.224,-2.254,-4.482,0.030,0.991,-0.251,0.580,0.977,0.000,100.000,63520.000,1.000
-0.421,1.549,-0.672,4.640,-0.666,-6.897,-4.373,-3.815,0.029,0.992,-0.249,0.519,0.946,0.153,100.000,63521.000,1.000
-3.923,-0.538,-5.039,1.112,-4.563,-4.890,-5.549,-2.012,0.030,0.990,-0.247,0.336,0.977,0.214,100.000,63522.000,1.000
-7.810,-3.075,-9.343,-2.634,-7.524,-2.116,-5.100,0.813,0.031,0.991,-0.249,0.366,1.099,0.122,100.000,63523.000,1.000
-11.601,-5.413,-13.086,-6.444,-9.290,1.170,-3.057,4.013,0.031,0.994,-0.250,0.366,1.038,0.275,100.000,63524.000,1.000
-14.800,-6.948,-15.861,-10.126,-9.941,4.515,-0.115,6.635,0.033,0.996,-0.248,0.397,1.099,0.244,100.000,63525.000,1.000
-17.031,-7.262,-17.372,-13.292,-9.684,7.443,2.745,7.926,0.032,0.998,-0.247,0.244,1.007,0.122,100.000,63526.000,1.000
-18.110,-6.289,-17.478,-15.397,-8.679,9.675,4.772,7.768,0.031,0.998,-0.245,0.031,1.038,0.031,100.000,63527.000,1.000
-18.087,-4.495,-16.303,-16.052,-7.118,11.186,5.705,6.546,0.029,0.996,-0.245,-0.122,0.977,0.061,100.000,63528.000,1.000
-17.299,-2.796,-14.353,-15.366,-5.459,11.792,5.532,4.644,0.028,0.996,-0.242,-0.214,1.038,-0.061,100.000,63529.000,1.000
-16.246,-2.046,-12.355,-13.870,-4.329,10.988,4.283,2.213,0.030,0.997,-0.243,-0.458,1.038,0.031,100.000,63530.000,1.000
-15.191,-2.480,-10.786,-12.041,-4.035,8.586,2.165,-0.730,0.029,0.997,-0.246,-0.488,0.946,-0.031,100.000,63531.000,1.000
-13.932,-3.624,-9.547,-9.991,-4.282,5.230,-0.268,-4.030,0.028,0.997,-0.244,-0.519,0.854,-0.275,100.000,63532.000,1.000
-12.027,-4.705,-8.145,-7.567,-4.380,2.024,-2.192,-7.135,0.030,0.995,-0.247,-0.641,0.854,-0.183,100.000,63533.000,1.000
-9.271,-5.162,-6.154,-4.663,-3.721,-0.267,-2.910,-9.208,0.030,0.995,-0.244,-0.885,0.916,-0.061,100.000,63534.000,1.000
-5.975,-4.958,-3.562,-1.438,-2.165,-1.734,-2.407,-9.612,0.031,0.994,-0.247,-0.946,0.824,0.000,100.000,63535.000,1.000
-2.800,-4.481,-0.793,1.641,-0.166,-3.117,-1.514,-8.345,0.029,0.996,-0.246,-1.038,0.763,0.061,100.000,63536.000,1.000
-0.398,-4.199,1.493,3.908,1.450,-5.121,-1.337,-6.124,0.029,0.996,-0.241,-1.129,0.580,-0.122,100.000,63537.000,1.000
0.855,-4.360,2.754,4.806,1.976,-7.924,-2.449,-4.039,0.028,0.995,-0.242,-1.251,0.610,-0.031,100.000,63538.000,1.000
1.007,-4.937,2.823,4.295,1.239,-11.078,-4.578,-2.927,0.028,0.996,-0.240,-1.312,0.458,0.031,100.000,63539.000,1.000
0.545,-5.757,1.971,2.962,-0.340,-13.650,-6.776,-2.804,0.026,0.995,-0.239,-1.495,0.366,-0.092,100.000,63540.000,1.000
0.215,-6.530,0.829,1.763,-1.922,-14.557,-7.749,-2.661,0.025,0.995,-0.240,-1.526,0.366,0.061,100.000,63541.000,1.000
0.581,-6.926,0.060,1.497,-2.687,-13.193,-6.455,-1.079,0.025,0.996,-0.239,-1.587,0.183,0.122,100.000,63542.000,1.000
1.488,-6.823,-0.203,2.190,-2.444,-9.894,-2.927,2.577,0.023,0.994,-0.239,-1.648,0.000,0.153,100.000,63543.000,1.000
2.117,-6.317,-0.399,3.088,-1.656,-5.625,1.680,7.648,0.023,0.992,-0.239,-1.740,-0.031,0.153,100.000,63544.000,1.000
1.663,-5.525,-1.058,3.282,-0.909,-1.304,5.957,12.770,0.024,0.991,-0.238,-1.831,-0.275,0.122,100.000,63545.000,1.000
-0.141,-4.607,-2.452,2.225,-0.562,2.363,8.967,16.674,0.024,0.990,-0.239,-1.801,-0.519,0.153,100.000,63546.000,1.000
-2.907,-3.801,-4.451,-0.056,-0.690,4.819,10.347,18.551,0.025,0.988,-0.239,-1.862,-0.580,0.153,100.000,63547.000,1.000
-5.786,-3.220,-6.536,-3.016,-1.137,5.891,10.186,18.056,0.026,0.984,-0.240,-1.801,-0.641,0.092,100.000,63548.000,1.000
-7.834,-2.770,-8.082,-5.911,-1.694,5.966,8.901,15.269,0.027,0.984,-0.240,-1.709,-0.702,0.122,100.000,63549.000,1.000
-8.298,-2.228,-8.584,-8.059,-2.182,5.742,7.163,10.913,0.028,0.984,-0.238,-1.740,-0.824,0.061,100.000,63550.000,1.000
-6.850,-1.342,-7.740,-8.961,-2.388,5.774,5.613,6.274,0.026,0.984,-0.239,-1.617,-1.007,-0.183,100.000,63551.000,1.000
-3.897,-0.089,-5.691,-8.537,-2.256,6.043,4.290,2.305,0.031,0.982,-0.237,-1.495,-0.977,-0.153,100.000,63552.000,1.000
-0.551,1.132,-3.191,-7.277,-2.065,5.943,2.649,-1.108,0.030,0.983,-0.238,-1.434,-0.946,-0.061,100.000,63553.000,1.000
1.953,1.777,-1.194,-5.933,-2.113,4.997,0.506,-4.629,0.032,0.981,-0.240,-1.282,-0.824,-0.061,100.000,63554.000,1.000
2.885,1.583,-0.260,-5.023,-2.354,3.406,-1.498,-8.529,0.032,0.981,-0.242,-1.160,-0.824,-0.122,100.000,63555.000,1.000
2.292,0.637,-0.409,-4.686,-2.623,1.407,-2.778,-12.481,0.034,0.982,-0.243,-0.854,-0.824,-0.061,100.000,63556.000,1.000
0.799,-0.776,-1.345,-4.885,-2.983,-1.424,-3.700,-15.920,0.033,0.981,-0.240,-0.793,-0.732,-0.153,100.000,63557.000,1.000
-0.850,-2.299,-2.611,-5.512,-3.564,-5.569,-5.167,-18.347,0.034,0.982,-0.238,-0.610,-0.641,-0.031,100.000,63558.000,1.000
-2.059,-3.509,-3.596,-6.237,-4.243,-10.724,-7.679,-19.452,0.034,0.980,-0.241,-0.458,-0.488,0.061,100.000,63559.000,1.000
-2.365,-3.905,-3.662,-6.474,-4.631,-15.806,-10.913,-19.179,0.036,0.981,-0.241,-0.244,-0.427,0.031,100.000,63560.000,1.000
-1.501,-3.095,-2.476,-5.675,-4.347,-19.383,-13.820,-17.706,0.035,0.981,-0.240,-0.061,-0.336,0.092,100.000,63561.000,1.000
0.390,-1.140,-0.243,-3.668,-3.261,-20.227,-15.055,-15.214,0.034,0.982,-0.243,0.061,-0.183,0.031,100.000,63562.000,1.000
2.694,1.360,2.357,-0.750,-1.597,-17.956,-13.723,-11.601,0.034,0.981,-0.240,0.183,0.000,-0.061,100.000,63563.000,1.000
4.507,3.506,4.417,2.387,0.115,-13.307,-9.984,-6.647,0.036,0.983,-0.241,0.275,0.183,-0.092,100.000,63564.000,1.000
5.010,4.507,5.155,4.889,1.307,-7.590,-4.925,-0.480,0.036,0.985,-0.240,0.366,0.244,-0.183,100.000,63565.000,1.000
3.885,4.016,4.272,6.071,1.701,-1.828,0.184,6.157,0.037,0.989,-0.241,0.366,0.305,-0.305,100.000,63566.000,1.000
1.496,2.235,2.048,5.662,1.412,3.488,4.430,12.059,0.033,0.989,-0.242,0.397,0.458,-0.336,100.000,63567.000,1.000
-1.334,-0.159,-0.821,3.876,0.797,7.939,7.299,16.024,0.035,0.990,-0.241,0.427,0.549,-0.366,100.000,63568.000,1.000
-3.735,-2.287,-3.526,1.275,0.192,10.911,8.546,17.345,0.035,0.991,-0.242,0.519,0.671,-0.275,100.000,63569.000,1.000
-5.175,-3.478,-5.470,-1.565,-0.302,11.915,8.156,15.989,0.033,0.993,-0.247,0.519,0.793,-0.275,100.000,63570.000,1.000
-5.574,-3.507,-6.363,-4.184,-0.745,11.092,6.502,12.548,0.032,0.993,-0.245,0.519,0.854,-0.305,100.000,63571.000,1.000
-5.028,-2.454,-6.040,-6.054,-1.035,9.336,4.510,8.148,0.033,0.996,-0.245,0.519,0.977,-0.244,100.000,63572.000,1.000
-3.477,-0.477,-4.356,-6.540,-0.853,7.698,3.191,4.078,0.033,0.997,-0.245,0.488,0.946,-0.397,100.000,63573.000,1.000
-0.774,2.192,-1.313,-5.209,0.051,6.563,2.770,1.114,0.032,0.996,-0.243,0.427,0.977,-0.397,100.000,63574.000,1.000
2.960,5.203,2.842,-2.102,1.747,5.633,2.710,-0.749,0.030,0.999,-0.241,0.275,1.007,-0.458,100.000,63575.000,1.000
7.174,8.156,7.591,2.189,4.166,4.526,2.487,-1.957,0.026,0.997,-0.242,0.153,0.977,-0.366,100.000,63576.000,1.000
11.058,10.644,12.171,6.595,6.976,3.141,1.895,-3.081,0.024,0.994,-0.241,0.153,1.038,-0.336,100.000,63577.000,1.000
13.890,12.254,15.782,9.985,9.518,1.604,0.817,-4.636,0.024,0.993,-0.240,0.000,1.038,-0.366,100.000,63578.000,1.000
15.319,12.617,17.882,11.755,11.091,0.090,-0.837,-6.746,0.025,0.989,-0.242,-0.092,1.038,-0.336,100.000,63579.000,1.000
15.477,11.666,18.382,12.072,11.349,-1.289,-2.922,-8.923,0.025,0.988,-0.245,-0.061,0.854,-0.305,100.000,63580.000,1.000
14.877,9.876,17.642,11.565,10.438,-2.470,-5.006,-10.432,0.026,0.991,-0.247,-0.031,0.763,-0.183,100.000,63581.000,1.000
14.056,8.097,16.271,10.856,8.810,-3.336,-6.598,-10.967,0.026,0.995,-0.246,0.153,0.580,-0.092,100.000,63582.000,1.000
13.214,7.021,14.740,10.196,6.851,-3.721,-7.460,-10.947,0.028,0.996,-0.248,0.122,0.519,0.122,100.000,63583.000,1.000
12.096,6.681,13.022,9.329,4.554,-3.630,-7.658,-11.054,0.027,0.994,-0.246,0.000,0.427,0.244,100.000,63584.000,1.000
10.224,6.327,10.583,7.694,1.536,-3.416,-7.419,-11.541,0.025,0.993,-0.248,-0.061,0.336,0.305,100.000,63585.000,1.000
7.162,4.824,6.750,4.813,-2.675,-3.687,-7.162,-12.182,0.027,0.991,-0.248,0.000,0.275,0.244,100.000,63586.000,1.000
2.688,1.382,1.187,0.551,-8.240,-4.865,-7.506,-12.711,0.028,0.990,-0.250,0.031,0.275,0.366,100.000,63587.000,1.000
-2.974,-3.811,-5.718,-4.751,-14.542,-6.623,-8.682,-12.886,0.027,0.990,-0.246,0.092,0.244,0.366,100.000,63588.000,1.000
-9.009,-9.480,-12.724,-10.226,-19.972,-7.718,-9.794,-12.177,0.029,0.991,-0.245,0.214,0.214,0.427,100.000,63589.000,1.000
-14.267,-13.839,-18.151,-14.660,-22.496,-6.658,-9.099,-9.799,0.028,0.991,-0.245,0.122,0.214,0.427,100.000,63590.000,1.000
-17.808,-15.569,-20.734,-16.956,-20.824,-2.796,-5.365,-5.341,0.029,0.989,-0.244,0.031,0.122,0.305,100.000,63591.000,1.000
-19.300,-14.513,-20.270,-16.662,-15.288,3.047,0.920,0.702,0.029,0.987,-0.244,-0.031,0.092,0.183,100.000,63592.000,1.000
-18.945,-11.613,-17.549,-14.129,-7.633,8.993,7.765,7.157,0.027,0.983,-0.248,-0.031,0.092,0.061,100.000,63593.000,1.000
-17.122,-8.164,-13.668,-10.202,0.067,13.221,13.134,12.824,0.028,0.983,-0.247,0.061,0.061,-0.153,100.000,63594.000,1.000
-14.280,-5.097,-9.521,-5.856,6.344,14.790,16.001,16.799,0.030,0.982,-0.246,0.092,-0.031,-0.305,100.000,63595.000,1.000
-11.021,-2.864,-5.755,-2.023,10.501,13.629,16.289,18.486,0.031,0.983,-0.247,0.153,0.031,-0.458,100.000,63596.000,1.000
-7.849,-1.523,-2.726,0.701,12.520,10.365,14.606,17.817,0.032,0.983,-0.248,0.214,-0.031,-0.427,100.000,63597.000,1.000
-4.852,-0.659,-0.280,2.348,13.017,6.336,12.119,15.398,0.032,0.982,-0.250,0.275,0.031,-0.458,100.000,63598.000,1.000
-1.798,0.489,2.122,3.454,12.893,3.032,9.919,12.127,0.033,0.983,-0.251,0.244,0.214,-0.488,100.000,63599.000,1.000
1.599,2.588,5.030,4.732,12.867,1.176,8.314,8.789,0.033,0.987,-0.252,0.336,0.275,-0.488,100.000,63600.000,1.000
5.487,5.750,8.699,6.786,13.283,0.537,6.965,5.945,0.031,0.985,-0.250,0.397,0.336,-0.580,100.000,63601.000,1.000
9.698,9.372,12.855,9.779,14.059,0.431,5.419,3.867,0.032,0.986,-0.250,0.397,0.366,-0.549,100.000,63602.000,1.000
13.691,12.446,16.684,13.210,14.702,0.159,3.329,2.538,0.030,0.988,-0.250,0.427,0.519,-0.458,100.000,63603.000,1.000
16.643,14.026,19.141,16.027,14.442,-0.733,0.444,1.583,0.028,0.992,-0.249,0.488,0.427,-0.580,100.000,63604.000,1.000
17.676,13.512,19.315,16.967,12.437,-2.262,-3.361,0.035,0.029,0.992,-0.246,0.366,0.397,-0.366,100.000,63605.000,1.000
16.305,10.914,16.815,15.109,8.149,-4.010,-7.883,-3.292,0.028,0.994,-0.244,0.458,0.336,-0.305,100.000,63606.000,1.000
12.856,7.004,12.087,10.486,1.872,-5.389,-12.279,-8.665,0.026,0.995,-0.244,0.275,0.275,-0.336,100.000,63607.000,1.000
8.256,2.910,6.252,4.163,-5.208,-6.057,-15.237,-14.885,0.025,0.993,-0.245,0.122,0.305,-0.244,100.000,63608.000,1.000
3.435,-0.603,0.443,-2.365,-11.684,-6.246,-15.923,-20.130,0.025,0.993,-0.244,0.092,0.305,-0.275,100.000,63609.000,1.000
-0.863,-3.304,-4.564,-7.741,-16.479,-6.544,-14.594,-22.974,0.027,0.995,-0.245,0.000,0.275,-0.092,100.000,63610.000,1.000
-3.986,-5.096,-8.164,-10.912,-18.803,-7.169,-12.065,-22.544,0.026,0.993,-0.244,-0.031,0.214,-0.122,100.000,63611.000,1.000
-5.554,-5.835,-9.926,-11.361,-18.158,-7.583,-8.818,-18.433,0.025,0.994,-0.247,-0.214,0.214,-0.092,100.000,63612.000,1.000
-5.627,-5.496,-9.851,-9.359,-14.655,-6.823,-4.739,-10.898,0.028,0.993,-0.246,-0.275,0.061,-0.031,100.000,63613.000,1.000
-4.583,-4.289,-8.429,-5.841,-9.189,-4.215,0.308,-1.056,0.029,0.993,-0.248,-0.183,0.031,0.031,100.000,63614.000,1.000
-3.042,-2.745,-6.552,-2.104,-3.349,-0.164,5.584,9.125,0.028,0.992,-0.247,-0.275,0.000,0.244,100.000,63615.000,1.000
-1.833,-1.662,-5.279,0.578,1.056,3.785,9.523,17.379,0.028,0.992,-0.248,-0.427,0.122,0.366,100.000,63616.000,1.000
-1.657,-1.654,-5.290,1.530,2.894,6.071,11.010,22.214,0.028,0.992,-0.251,-0.488,0.122,0.366,100.000,63617.000,1.000
-2.600,-2.660,-6.417,1.011,2.303,6.314,10.302,23.593,0.030,0.990,-0.250,-0.458,0.061,0.336,100.000,63618.000,1.000
-4.031,-3.928,-7.753,-0.071,0.461,5.346,8.610,22.574,0.030,0.991,-0.247,-0.488,0.092,0.336,100.000,63619.000,1.000
-5.021,-4.494,-8.272,-0.777,-1.174,4.384,7.150,20.313,0.033,0.992,-0.249,-0.519,0.122,0.397,100.000,63620.000,1.000
-5.027,-3.816,-7.484,-0.662,-1.630,4.246,6.563,17.422,0.031,0.991,-0.248,-0.610,0.061,0.549,100.000,63621.000,1.000
-4.202,-2.094,-5.656,0.133,-0.794,4.939,6.708,14.049,0.032,0.991,-0.249,-0.702,0.153,0.580,100.000,63622.000,1.000
-3.091,-0.081,-3.476,1.200,0.691,5.674,6.743,10.255,0.032,0.989,-0.249,-0.641,0.214,0.610,100.000,63623.000,1.000
-2.094,1.369,-1.552,2.217,1.898,5.391,5.649,6.249,0.034,0.989,-0.247,-0.671,0.244,0.641,100.000,63624.000,1.000
-1.217,1.793,-0.074,3.154,2.273,3.663,3.076,2.435,0.033,0.990,-0.251,-0.702,0.275,0.641,100.000,63625.000,1.000
-0.138,1.463,1.242,4.272,2.049,1.128,-0.258,-0.662,0.033,0.990,-0.248,-0.702,0.336,0.458,100.000,63626.000,1.000
1.495,1.188,2.824,5.806,1.906,-1.134,-3.199,-2.773,0.033,0.990,-0.246,-0.732,0.427,0.397,100.000,63627.000,1.000
3.688,1.632,4.741,7.513,2.208,-2.517,-5.105,-4.282,0.032,0.988,-0.248,-0.732,0.458,0.366,100.000,63628.000,1.000
6.023,2.854,6.604,8.697,2.721,-3.072,-6.014,-5.896,0.031,0.989,-0.245,-0.732,0.549,0.366,100.000,63629.000,1.000
7.980,4.448,7.970,8.819,3.031,-3.043,-6.162,-7.799,0.030,0.989,-0.244,-0.732,0.519,0.305,100.000,63630.000,1.000
9.207,5.933,8.704,7.959,2.993,-2.542,-5.679,-9.374,0.031,0.989,-0.245,-0.793,0.519,0.122,100.000,63631.000,1.000
9.462,6.881,8.846,6.592,2.683,-1.800,-4.779,-9.859,0.031,0.988,-0.246,-0.793,0.549,0.031,100.000,63632.000,1.000
8.572,6.817,8.329,5.134,2.169,-1.435,-3.928,-9.075,0.029,0.988,-0.246,-0.824,0.458,-0.122,100.000,63633.000,1.000
6.559,5.350,7.064,3.796,1.525,-2.052,-3.505,-7.374,0.029,0.988,-0.242,-0.885,0.397,-0.214,100.000,63634.000,1.000
3.731,2.596,5.191,2.632,0.932,-3.614,-3.368,-5.071,0.026,0.990,-0.244,-0.793,0.366,-0.122,100.000,63635.000,1.000
0.615,-0.746,3.080,1.525,0.579,-5.342,-3.000,-2.268,0.027,0.991,-0.244,-0.885,0.244,-0.122,100.000,63636.000,1.000
-2.180,-3.803,1.149,0.296,0.542,-6.173,-2.057,0.847,0.027,0.990,-0.246,-0.824,0.183,-0.244,100.000,63637.000,1.000
-4.089,-5.883,-0.216,-1.004,0.816,-5.384,-0.584,3.870,0.027,0.990,-0.245,-0.916,0.214,-0.366,100.000,63638.000,1.000
-4.827,-6.667,-0.816,-2.080,1.286,-3.000,1.274,6.425,0.028,0.990,-0.241,-0.854,0.244,-0.336,100.000,63639.000,1.000
-4.622,-6.321,-0.869,-2.811,1.633,0.255,3.417,8.265,0.027,0.990,-0.240,-0.824,0.031,-0.275,100.000,63640.000,1.000
-4.074,-5.314,-0.844,-3.434,1.481,3.476,5.576,9.134,0.026,0.991,-0.243,-0.885,0.000,-0.275,100.000,63641.000,1.000
-3.665,-4.005,-0.962,-4.197,0.741,6.096,7.276,8.814,0.026,0.992,-0.244,-0.824,-0.031,-0.366,100.000,63642.000,1.000
-3.371,-2.450,-0.982,-5.014,-0.239,8.043,8.220,7.407,0.027,0.991,-0.242,-0.824,-0.061,-0.488,100.000,63643.000,1.000
-2.827,-0.615,-0.545,-5.571,-0.971,9.473,8.470,5.326,0.027,0.990,-0.238,-0.854,-0.092,-0.397,100.000,63644.000,1.000
-1.790,1.298,0.374,-5.655,-1.254,10.379,8.134,2.960,0.026,0.989,-0.239,-0.885,-0.183,-0.458,100.000,63645.000,1.000
-0.323,2.847,1.423,-5.277,-1.243,10.467,7.169,0.538,0.027,0.990,-0.240,-0.854,-0.336,-0.458,100.000,63646.000,1.000
1.273,3.634,2.178,-4.600,-1.196,9.408,5.598,-1.753,0.028,0.988,-0.240,-0.854,-0.305,-0.488,100.000,63647.000,1.000
2.545,3.551,2.371,-3.867,-1.271,7.268,3.728,-3.792,0.028,0.990,-0.243,-0.824,-0.305,-0.427,100.000,63648.000,1.000
3.073,2.855,1.929,-3.378,-1.488,4.827,2.046,-5.749,0.026,0.989,-0.241,-0.702,-0.397,-0.488,100.000,63649.000,1.000
2.722,2.058,0.988,-3.371,-1.754,3.236,0.859,-8.049,0.028,0.989,-0.240,-0.702,-0.458,-0.458,100.000,63650.000,1.000
1.838,1.691,-0.009,-3.688,-1.859,3.048,0.067,-10.852,0.027,0.987,-0.244,-0.732,-0.488,-0.488,100.000,63651.000,1.000
1.228,2.079,-0.355,-3.578,-1.491,3.683,-0.656,-13.555,0.027,0.988,-0.242,-0.671,-0.458,-0.519,100.000,63652.000,1.000
1.700,3.170,0.491,-2.202,-0.452,3.956,-1.523,-15.033,0.026,0.989,-0.240,-0.763,-0.336,-0.427,100.000,63653.000,1.000
3.315,4.311,2.213,0.419,0.914,2.800,-2.725,-14.590,0.028,0.990,-0.243,-0.793,-0.366,-0.397,100.000,63654.000,1.000
5.127,4.311,3.504,3.084,1.617,-0.510,-4.565,-12.537,0.029,0.990,-0.244,-0.702,-0.366,-0.366,100.000,63655.000,1.000
5.863,2.271,3.019,4.298,0.787,-5.860,-6.910,-9.597,0.030,0.990,-0.245,-0.702,-0.244,-0.244,100.000,63656.000,1.000
4.935,-1.435,0.537,3.483,-1.372,-11.767,-8.751,-6.044,0.030,0.989,-0.243,-0.641,-0.275,-0.244,100.000,63657.000,1.000
2.740,-5.322,-2.974,1.242,-3.714,-16.076,-8.936,-1.741,0.032,0.989,-0.242,-0.580,-0.244,-0.153,100.000,63658.000,1.000
0.182,-7.844,-6.152,-1.298,-5.100,-17.389,-7.238,3.297,0.031,0.988,-0.242,-0.519,-0.153,-0.183,100.000,63659.000,1.000
-1.925,-8.144,-7.920,-3.102,-5.012,-15.639,-4.344,8.683,0.032,0.988,-0.241,-0.458,-0.092,-0.153,100.000,63660.000,1.000
-3.178,-6.270,-7.827,-3.547,-3.589,-11.710,-1.078,13.750,0.034,0.990,-0.242,-0.397,0.000,-0.031,100.000,63661.000,1.000
-3.593,-3.188,-6.253,-2.660,-1.525,-6.926,1.934,17.587,0.031,0.989,-0.242,-0.458,0.031,-0.031,100.000,63662.000,1.000
-3.406,-0.392,-4.242,-1.151,0.197,-2.596,4.067,19.138,0.031,0.991,-0.240,-0.519,0.244,0.092,100.000,63663.000,1.000
-2.915,1.014,-2.858,-0.013,0.855,0.518,4.828,17.726,0.032,0.990,-0.242,-0.549,0.336,0.153,100.000,63664.000,1.000
-2.407,0.947,-2.592,0.065,0.424,2.556,4.402,13.701,0.032,0.989,-0.243,-0.519,0.366,0.214,100.000,63665.000,1.000
-2.062,0.080,-3.339,-1.035,-0.606,4.312,3.722,8.392,0.032,0.990,-0.245,-0.458,0.519,0.153,100.000,63666.000,1.000
-1.974,-0.859,-4.764,-3.061,-1.798,6.403,3.599,3.249,0.031,0.989,-0.244,-0.427,0.549,0.153,100.000,63667.000,1.000
-2.270,-1.484,-6.516,-5.614,-3.042,8.558,3.906,-0.941,0.030,0.989,-0.243,-0.427,0.732,0.366,100.000,63668.000,1.000
-3.039,-1.715,-8.104,-8.057,-4.244,9.802,3.851,-4.052,0.033,0.988,-0.244,-0.336,0.763,0.336,100.000,63669.000,1.000
-4.017,-1.574,-8.806,-9.488,-4.968,9.410,2.956,-6.153,0.031,0.987,-0.245,-0.305,0.824,0.183,100.000,63670.000,1.000
-4.434,-1.089,-7.909,-9.089,-4.589,7.489,1.426,-7.302,0.031,0.987,-0.247,-0.183,0.977,0.092,100.000,63671.000,1.000
-3.352,-0.277,-5.064,-6.560,-2.763,4.601,-0.335,-7.615,0.032,0.988,-0.247,-0.031,1.099,0.244,100.000,63672.000,1.000
-0.282,0.919,-0.391,-2.170,0.403,1.258,-2.080,-7.315,0.033,0.987,-0.246,0.000,1.129,0.305,100.000,63673.000,1.000
4.498,2.612,5.569,3.430,4.466,-2.096,-3.599,-6.758,0.031,0.988,-0.245,0.122,1.160,0.336,100.000,63674.000,1.000
10.084,4.750,11.859,9.298,8.679,-5.044,-4.741,-6.430,0.030,0.987,-0.246,0.122,1.190,0.214,100.000,63675.000,1.000
15.186,6.947,17.226,14.249,12.029,-7.362,-5.630,-6.755,0.031,0.988,-0.245,0.183,1.221,0.153,100.000,63676.000,1.000
18.428,8.605,20.506,17.125,13.593,-9.034,-6.498,-7.708,0.030,0.988,-0.243,0.122,1.251,0.183,100.000,63677.000,1.000
18.903,9.297,21.094,17.326,13.032,-9.921,-7.179,-8.601,0.029,0.986,-0.243,0.183,1.282,0.092,100.000,63678.000,1.000
16.647,9.032,19.147,15.120,10.739,-9.679,-7.080,-8.428,0.031,0.987,-0.243,0.275,1.282,0.183,100.000,63679.000,1.000
12.483,8.049,15.325,11.358,7.421,-8.280,-5.934,-6.633,0.029,0.988,-0.243,0.275,1.160,0.183,100.000,63680.000,1.000
7.475,6.441,10.340,6.908,3.615,-6.328,-4.307,-3.575,0.028,0.988,-0.243,0.244,1.190,0.183,100.000,63681.000,1.000
2.485,4.131,4.798,2.377,-0.333,-4.542,-3.020,-0.192,0.027,0.990,-0.241,0.336,1.099,0.122,100.000,63682.000,1.000
-2.009,1.167,-0.676,-1.792,-3.977,-3.161,-2.265,2.731,0.027,0.991,-0.243,0.336,1.038,0.000,100.000,63683.000,1.000
-5.863,-2.091,-5.396,-5.177,-6.718,-1.965,-1.481,5.007,0.029,0.991,-0.243,0.214,1.038,0.122,100.000,63684.000,1.000
-8.974,-4.997,-8.728,-7.335,-7.970,-0.605,0.075,6.966,0.029,0.991,-0.245,0.275,0.946,0.214,100.000,63685.000,1.000
-11.157,-6.831,-10.281,-7.956,-7.401,1.156,2.678,8.999,0.028,0.990,-0.247,0.244,1.007,0.214,100.000,63686.000,1.000
-12.378,-7.258,-10.172,-7.195,-5.218,3.300,5.855,11.034,0.027,0.990,-0.246,0.244,0.732,0.153,100.000,63687.000,1.000
-12.800,-6.607,-9.020,-5.682,-2.203,5.559,8.713,12.490,0.027,0.992,-0.245,0.275,0.671,0.153,100.000,63688.000,1.000
-12.551,-5.597,-7.568,-4.104,0.661,7.549,10.562,12.747,0.025,0.991,-0.247,0.336,0.580,-0.153,100.000,63689.000,1.000
-11.655,-4.796,-6.317,-2.844,2.681,8.923,11.262,11.624,0.028,0.992,-0.245,0.183,0.580,-0.031,100.000,63690.000,1.000
-10.136,-4.329,-5.387,-1.861,3.764,9.538,11.253,9.642,0.025,0.994,-0.242,0.214,0.519,0.000,100.000,63691.000,1.000
-8.120,-3.999,-4.615,-0.842,4.333,9.538,11.198,7.776,0.026,0.992,-0.243,0.122,0.366,0.153,100.000,63692.000,1.000
-5.914,-3.649,-3.829,0.403,4.802,9.078,11.209,6.562,0.027,0.992,-0.244,0.061,0.275,0.153,100.000,63693.000,1.000
-3.934,-3.367,-2.975,1.767,5.191,8.013,10.566,5.598,0.026,0.991,-0.246,0.061,0.183,0.061,100.000,63694.000,1.000
-2.463,-3.330,-2.021,3.017,5.257,5.927,8.375,4.027,0.027,0.990,-0.247,0.031,0.153,-0.061,100.000,63695.000,1.000
-1.380,-3.537,-0.890,3.974,4.759,2.429,4.259,1.142,0.028,0.988,-0.248,0.031,0.061,-0.061,100.000,63696.000,1.000
-0.119,-3.667,0.551,4.625,3.702,-2.294,-1.234,-3.239,0.028,0.989,-0.247,0.092,0.000,0.031,100.000,63697.000,1.000
1.901,-3.211,2.466,5.182,2.515,-7.041,-6.548,-8.385,0.028,0.987,-0.248,-0.031,0.000,0.031,100.000,63698.000,1.000
4.590,-1.869,4.786,5.866,1.799,-10.094,-9.983,-12.853,0.028,0.989,-0.248,0.000,0.031,0.031,100.000,63699.000,1.000
7.014,0.083,6.936,6.517,1.739,-10.369,-10.913,-15.434,0.029,0.990,-0.246,0.000,0.000,0.183,100.000,63700.000,1.000
7.921,1.886,7.978,6.524,1.886,-8.001,-9.933,-15.810,0.030,0.991,-0.246,-0.031,-0.092,-0.061,100.000,63701.000,1.000
6.462,2.804,7.106,5.194,1.513,-3.942,-8.027,-14.377,0.031,0.990,-0.246,0.000,-0.122,0.061,100.000,63702.000,1.000
2.672,2.526,4.048,2.245,0.056,0.521,-6.084,-11.748,0.031,0.990,-0.247,0.031,-0.031,0.061,100.000,63703.000,1.000
-2.509,1.122,-0.814,-1.923,-2.640,3.874,-4.966,-8.388,0.032,0.989,-0.244,0.000,-0.092,0.031,100.000,63704.000,1.000
-7.666,-1.141,-6.544,-6.360,-6.154,4.919,-5.179,-4.538,0.032,0.990,-0.244,-0.061,0.000,0.000,100.000,63705.000,1.000
-11.632,-3.874,-12.011,-10.093,-9.603,3.646,-6.343,-0.472,0.033,0.989,-0.245,-0.153,-0.092,0.061,100.000,63706.000,1.000
-14.116,-6.711,-16.419,-12.698,-12.148,1.223,-7.435,3.273,0.032,0.988,-0.246,-0.122,0.061,0.031,100.000,63707.000,1.000
-15.586,-9.335,-19.467,-14.330,-13.353,-0.910,-7.487,6.118,0.034,0.989,-0.246,-0.092,0.122,0.122,100.000,63708.000,1.000
-16.443,-11.242,-20.958,-15.167,-13.005,-1.694,-5.879,7.953,0.032,0.987,-0.246,-0.092,0.183,0.153,100.000,63709.000,1.000
-16.602,-11.807,-20.582,-15.065,-10.963,-0.636,-2.451,9.124,0.030,0.988,-0.248,-0.122,0.244,0.000,100.000,63710.000,1.000
-15.893,-10.797,-18.313,-13.833,-7.462,1.974,2.176,9.894,0.030,0.988,-0.244,-0.183,0.214,0.031,100.000,63711.000,1.000
-14.417,-8.566,-14.725,-11.540,-3.295,5.031,6.623,10.172,0.031,0.989,-0.245,-0.214,0.275,-0.031,100.000,63712.000,1.000
-12.461,-5.743,-10.725,-8.506,0.583,7.260,9.526,9.719,0.031,0.989,-0.243,-0.214,0.397,-0.061,100.000,63713.000,1.000
-10.287,-2.889,-7.055,-5.193,3.545,7.910,10.381,8.384,0.032,0.987,-0.247,-0.275,0.458,-0.153,100.000,63714.000,1.000
-7.957,-0.375,-3.977,-2.053,5.422,6.863,9.626,6.248,0.033,0.989,-0.249,-0.214,0.458,-0.214,100.000,63715.000,1.000
-5.406,1.460,-1.392,0.589,6.278,4.400,7.942,3.619,0.031,0.989,-0.249,-0.183,0.397,-0.275,100.000,63716.000,1.000
-2.720,2.230,0.791,2.470,6.130,0.917,5.561,0.789,0.032,0.989,-0.248,-0.244,0.397,-0.244,100.000,63717.000,1.000
-0.137,1.864,2.531,3.391,4.958,-3.159,2.396,-2.150,0.031,0.990,-0.246,-0.244,0.549,-0.244,100.000,63718.000,1.000
2.230,0.919,3.865,3.434,2.996,-7.079,-1.220,-5.162,0.031,0.989,-0.247,-0.153,0.519,-0.153,100.000,63719.000,1.000
4.534,0.341,5.066,3.097,0.863,-9.753,-4.390,-8.035,0.029,0.989,-0.245,-0.214,0.549,-0.122,100.000,63720.000,1.000
6.981,0.877,6.480,3.068,-0.729,-10.399,-6.376,-10.437,0.028,0.989,-0.244,-0.183,0.610,-0.122,100.000,63721.000,1.000
9.424,2.556,8.125,3.676,-1.515,-9.207,-7.174,-12.246,0.029,0.990,-0.245,-0.183,0.610,-0.122,100.000,63722.000,1.000
11.346,4.681,9.545,4.597,-1.857,-7.192,-7.307,-13.624,0.028,0.990,-0.246,-0.153,0.580,-0.092,100.000,63723.000,1.000
12.312,6.382,10.199,5.181,-2.330,-5.384,-7.287,-14.579,0.026,0.991,-0.245,-0.122,0.488,-0.153,100.000,63724.000,1.000
12.222,7.151,9.865,4.946,-3.289,-4.211,-7.427,-14.708,0.030,0.991,-0.246,-0.153,0.458,-0.092,100.000,63725.000,1.000
11.159,6.975,8.622,3.760,-4.731,-3.504,-7.813,-13.486,0.026,0.991,-0.246,-0.244,0.458,-0.214,100.000,63726.000,1.000
9.271,6.142,6.687,1.851,-6.294,-2.837,-8.116,-10.630,0.025,0.992,-0.246,-0.275,0.397,-0.214,100.000,63727.000,1.000
6.782,4.935,4.321,-0.279,-7.383,-1.805,-7.620,-6.246,0.027,0.993,-0.245,-0.366,0.366,-0.183,100.000,63728.000,1.000
3.986,3.519,1.842,-2.026,-7.414,-0.092,-5.689,-0.815,0.026,0.992,-0.244,-0.336,0.336,-0.214,100.000,63729.000,1.000
1.172,2.032,-0.415,-2.939,-6.089,2.358,-2.348,4.893,0.026,0.991,-0.245,-0.366,0.183,-0.183,100.000,63730.000,1.000
-1.454,0.623,-2.206,-2.891,-3.568,5.071,1.534,9.886,0.026,0.992,-0.244,-0.488,0.244,-0.244,100.000,63731.000,1.000
-3.708,-0.551,-3.402,-2.095,-0.388,7.151,4.729,13.166,0.026,0.990,-0.244,-0.397,0.183,-0.305,100.000,63732.000,1.000
-5.398,-1.389,-3.987,-1.065,2.736,7.765,6.371,14.095,0.026,0.992,-0.245,-0.366,0.153,-0.183,100.000,63733.000,1.000
-6.440,-1.925,-4.083,-0.441,5.133,6.597,6.367,12.685,0.026,0.990,-0.243,-0.427,0.092,-0.183,100.000,63734.000,1.000
-6.882,-2.222,-3.836,-0.601,6.468,4.058,5.276,9.555,0.028,0.991,-0.243,-0.519,0.122,-0.214,100.000,63735.000,1.000
-6.773,-2.291,-3.345,-1.454,6.754,0.982,3.727,5.578,0.027,0.991,-0.241,-0.458,-0.031,-0.244,100.000,63736.000,1.000
-6.084,-2.182,-2.675,-2.605,6.087,-1.981,1.978,1.567,0.028,0.989,-0.243,-0.366,0.031,-0.122,100.000,63737.000,1.000
-4.721,-1.899,-1.752,-3.516,4.689,-4.462,0.152,-1.791,0.028,0.988,-0.242,-0.275,-0.031,-0.153,100.000,63738.000,1.000
-2.559,-1.237,-0.278,-3.544,3.101,-6.089,-1.354,-4.021,0.027,0.986,-0.242,-0.336,0.031,-0.122,100.000,63739.000,1.000
0.541,0.130,2.105,-2.084,2.074,-6.497,-1.923,-4.930,0.026,0.986,-0.243,-0.305,0.000,-0.061,100.000,63740.000,1.000
4.664,2.493,5.595,1.151,2.244,-5.530,-1.056,-4.475,0.026,0.985,-0.246,-0.122,-0.031,0.031,100.000,63741.000,1.000
9.612,5.971,10.056,5.831,3.813,-3.389,1.196,-2.713,0.028,0.985,-0.242,-0.153,-0.092,-0.031,100.000,63742.000,1.000
14.663,10.263,14.848,10.932,6.293,-0.737,3.925,-0.114,0.028,0.985,-0.245,-0.092,-0.122,-0.092,100.000,63743.000,1.000
18.675,14.473,18.840,15.011,8.546,1.477,5.639,2.220,0.028,0.984,-0.245,0.000,-0.122,-0.244,100.000,63744.000,1.000
20.579,17.356,20.826,16.812,9.311,2.569,5.220,3.014,0.028,0.985,-0.248,0.061,-0.153,-0.214,100.000,63745.000,1.000
19.874,17.915,20.105,15.858,7.928,2.568,2.785,1.681,0.028,0.987,-0.246,0.092,-0.183,-0.183,100.000,63746.000,1.000
16.808,15.962,16.821,12.621,4.681,2.187,-0.427,-1.298,0.030,0.987,-0.248,0.336,-0.153,-0.153,100.000,63747.000,1.000
12.241,12.211,11.893,8.246,0.647,2.337,-3.022,-4.671,0.030,0.989,-0.247,0.305,-0.153,-0.031,100.000,63748.000,1.000
7.347,7.884,6.645,4.013,-2.785,3.455,-4.256,-6.915,0.031,0.987,-0.245,0.244,-0.092,-0.031,100.000,63749.000,1.000
3.259,4.206,2.331,0.867,-4.492,5.243,-4.094,-6.813,0.030,0.988,-0.245,0.214,-0.061,0.000,100.000,63750.000,1.000
0.743,2.016,-0.232,-0.749,-4.002,6.998,-2.858,-4.050,0.030,0.988,-0.245,0.183,-0.031,-0.031,100.000,63751.000,1.000
0.002,1.482,-0.839,-0.795,-1.551,8.090,-0.938,0.674,0.031,0.988,-0.247,0.153,0.031,-0.092,100.000,63752.000,1.000
0.633,2.025,0.118,0.441,2.158,8.235,1.378,6.209,0.029,0.991,-0.247,0.183,0.000,-0.031,100.000,63753.000,1.000
1.769,2.614,1.797,2.359,6.208,7.470,3.886,11.554,0.033,0.993,-0.249,0.061,0.214,0.031,100.000,63754.000,1.000
2.427,2.349,3.213,4.166,9.656,5.973,6.296,15.944,0.034,0.994,-0.247,-0.031,0.336,0.092,100.000,63755.000,1.000
2.024,0.942,3.684,5.227,11.778,4.002,8.168,18.798,0.034,0.993,-0.245,-0.061,0.427,0.061,100.000,63756.000,1.000
0.791,-1.114,3.219,5.471,12.409,1.967,9.157,19.889,0.033,0.992,-0.248,-0.122,0.427,0.031,100.000,63757.000,1.000
-0.333,-2.755,2.515,5.431,12.037,0.437,9.357,19.407,0.033,0.988,-0.250,-0.122,0.580,0.122,100.000,63758.000,1.000
-0.424,-3.012,2.380,5.695,11.331,-0.100,9.219,17.677,0.032,0.984,-0.251,-0.031,0.763,0.092,100.000,63759.000,1.000
0.723,-1.773,3.030,6.297,10.501,0.312,9.023,14.875,0.031,0.984,-0.252,-0.061,0.793,0.183,100.000,63760.000,1.000
2.629,0.184,4.057,6.768,9.251,0.935,8.600,11.160,0.032,0.985,-0.254,0.122,0.885,0.214,100.000,63761.000,1.000
4.689,1.906,4.900,6.635,7.193,0.780,7.402,6.800,0.031,0.988,-0.250,0.214,0.854,0.214,100.000,63762.000,1.000
6.421,2.825,5.135,5.649,4.108,-0.686,4.765,1.926,0.032,0.989,-0.249,0.305,0.946,0.244,100.000,63763.000,1.000
7.360,2.817,4.513,3.764,0.100,-3.123,0.527,-3.455,0.032,0.990,-0.249,0.183,1.251,0.275,100.000,63764.000,1.000
7.108,2.055,3.017,1.136,-4.287,-5.524,-4.441,-9.019,0.033,0.992,-0.249,0.183,1.221,0.336,100.000,63765.000,1.000
5.684,0.904,0.966,-1.837,-8.201,-6.816,-8.627,-13.964,0.033,0.991,-0.251,0.214,1.221,0.275,100.000,63766.000,1.000
3.773,-0.122,-0.936,-4.488,-10.787,-6.350,-10.856,-17.336,0.032,0.992,-0.251,0.305,1.221,0.275,100.000,63767.000,1.000
2.364,-0.543,-1.841,-6.065,-11.504,-4.176,-10.876,-18.505,0.031,0.994,-0.248,0.244,1.343,0.153,100.000,63768.000,1.000
1.996,-0.234,-1.363,-6.202,-10.453,-1.100,-9.270,-17.553,0.029,0.993,-0.246,0.122,1.343,0.061,100.000,63769.000,1.000
2.421,0.472,0.088,-5.202,-8.391,1.699,-6.995,-15.267,0.026,0.995,-0.249,0.122,1.221,0.031,100.000,63770.000,1.000
2.913,1.030,1.622,-3.715,-6.219,3.415,-4.812,-12.478,0.027,0.995,-0.246,-0.092,1.160,-0.092,100.000,63771.000,1.000
2.740,0.975,2.420,-2.304,-4.477,4.014,-2.990,-9.435,0.025,0.995,-0.247,-0.153,1.099,-0.397,100.000,63772.000,1.000
1.488,0.086,2.029,-1.321,-3.283,3.880,-1.521,-5.958,0.025,0.996,-0.248,-0.183,0.977,-0.458,100.000,63773.000,1.000
-0.728,-1.532,0.445,-0.929,-2.476,3.283,-0.383,-1.916,0.027,0.995,-0.248,-0.336,0.885,-0.488,100.000,63774.000,1.000
-3.330,-3.535,-1.952,-1.043,-1.708,2.376,0.600,2.608,0.025,0.995,-0.250,-0.366,0.793,-0.641,100.000,63775.000,1.000
-5.674,-5.602,-4.638,-1.428,-0.649,1.469,1.882,7.302,0.023,0.993,-0.249,-0.488,0.763,-0.610,100.000,63776.000,1.000
-7.376,-7.533,-7.139,-1.874,0.715,0.814,3.766,11.552,0.022,0.992,-0.248,-0.458,0.610,-0.702,100.000,63777.000,1.000
-8.251,-9.192,-9.076,-2.244,1.957,0.076,5.765,14.504,0.023,0.995,-0.245,-0.549,0.427,-0.671,100.000,63778.000,1.000
-8.223,-10.525,-10.252,-2.511,2.386,-1.516,6.687,15.304,0.023,0.994,-0.242,-0.519,0.244,-0.702,100.000,63779.000,1.000
-7.379,-11.489,-10.742,-2.807,1.450,-4.327,5.521,13.455,0.020,0.996,-0.243,-0.458,0.092,-0.610,100.000,63780.000,1.000
-6.011,-11.874,-10.785,-3.340,-0.844,-7.830,2.311,9.193,0.022,0.994,-0.242,-0.610,-0.061,-0.580,100.000,63781.000,1.000
-4.514,-11.340,-10.499,-4.148,-3.762,-10.845,-1.707,3.568,0.023,0.995,-0.242,-0.641,-0.153,-0.549,100.000,63782.000,1.000
-3.148,-9.682,-9.758,-4.923,-6.146,-12.128,-4.801,-1.984,0.023,0.996,-0.244,-0.641,-0.214,-0.244,100.000,63783.000,1.000
-1.933,-7.070,-8.384,-5.206,-7.128,-11.034,-5.926,-6.345,0.022,0.993,-0.242,-0.732,-0.305,-0.244,100.000,63784.000,1.000
-0.884,-4.080,-6.530,-4.881,-6.735,-7.949,-5.392,-9.201,0.022,0.993,-0.243,-0.793,-0.427,-0.153,100.000,63785.000,1.000
-0.217,-1.428,-4.767,-4.389,-5.829,-4.034,-4.314,-10.940,0.023,0.994,-0.243,-0.946,-0.580,-0.183,100.000,63786.000,1.000
-0.162,0.396,-3.689,-4.282,-5.390,-0.446,-3.532,-12.106,0.024,0.991,-0.240,-1.160,-0.763,-0.031,100.000,63787.000,1.000
-0.702,1.203,-3.523,-4.764,-5.945,2.054,-3.324,-13.024,0.022,0.991,-0.241,-1.129,-0.824,-0.061,100.000,63788.000,1.000
-1.646,0.957,-4.184,-5.756,-7.585,2.964,-3.890,-13.874,0.022,0.990,-0.239,-1.129,-0.977,-0.061,100.000,63789.000,1.000
-2.861,-0.201,-5.449,-7.174,-10.115,2.096,-5.479,-14.850,0.024,0.988,-0.238,-1.251,-1.007,0.000,100.000,63790.000,1.000
-4.386,-1.900,-7.019,-8.943,-13.022,-0.095,-7.937,-16.081,0.024,0.986,-0.237,-1.312,-1.129,-0.031,100.000,63791.000,1.000
-6.313,-3.680,-8.572,-10.851,-15.509,-2.521,-10.452,-17.418,0.026,0.987,-0.240,-1.221,-1.160,-0.183,100.000,63792.000,1.000
-8.615,-5.248,-9.939,-12.599,-16.875,-3.978,-11.955,-18.384,0.028,0.985,-0.246,-1.221,-1.160,-0.092,100.000,63793.000,1.000
-11.060,-6.498,-11.148,-13.945,-16.848,-3.752,-11.720,-18.329,0.027,0.983,-0.244,-1.190,-1.129,-0.061,100.000,63794.000,1.000
-13.216,-7.386,-12.197,-14.658,-15.558,-1.991,-9.714,-16.709,0.029,0.983,-0.241,-1.038,-1.099,-0.153,100.000,63795.000,1.000
-14.655,-8.027,-12.968,-14.518,-13.390,0.287,-6.667,-13.446,0.030,0.982,-0.242,-0.946,-0.977,-0.122,100.000,63796.000,1.000
-15.176,-8.758,-13.373,-13.531,-10.891,1.691,-3.733,-9.071,0.031,0.983,-0.241,-0.885,-1.007,-0.061,100.000,63797.000,1.000
-14.666,-9.660,-13.282,-11.858,-8.457,1.292,-1.701,-4.349,0.035,0.979,-0.243,-0.732,-0.854,0.000,100.000,63798.000,1.000
-12.958,-10.135,-12.382,-9.561,-6.075,-0.806,-0.521,0.179,0.037,0.979,-0.246,-0.702,-0.671,0.092,100.000,63799.000,1.000
-10.152,-9.419,-10.424,-6.684,-3.532,-3.617,0.340,4.262,0.037,0.979,-0.246,-0.336,-0.549,-0.031,100.000,63800.000,1.000
-6.780,-7.347,-7.479,-3.432,-0.735,-5.888,1.381,7.745,0.037,0.979,-0.247,-0.061,-0.305,0.122,100.000,63801.000,1.000
-3.503,-4.448,-3.922,-0.146,2.156,-6.705,2.787,10.321,0.036,0.980,-0.246,0.122,-0.031,0.244,100.000,63802.000,1.000
-0.898,-1.530,-0.337,2.735,4.743,-5.856,4.304,11.514,0.038,0.981,-0.245,0.305,0.092,0.366,100.000,63803.000,1.000
0.522,0.696,2.585,4.694,6.547,-3.841,5.305,11.115,0.035,0.981,-0.244,0.519,0.336,0.092,100.000,63804.000,1.000
0.440,1.853,4.264,5.317,7.244,-1.565,5.140,9.441,0.035,0.981,-0.245,0.610,0.519,-0.061,100.000,63805.000,1.000
-0.934,2.068,4.529,4.585,6.825,0.222,3.580,6.994,0.035,0.982,-0.246,0.671,0.702,0.092,100.000,63806.000,1.000
-2.829,1.911,3.753,2.975,5.666,1.385,1.096,4.164,0.033,0.983,-0.244,0.824,0.854,0.153,100.000,63807.000,1.000
-4.405,1.971,2.592,1.206,4.367,2.347,-1.253,1.386,0.033,0.986,-0.246,1.007,0.977,0.122,100.000,63808.000,1.000
-5.184,2.443,1.638,-0.124,3.418,3.605,-2.320,-0.770,0.032,0.989,-0.246,1.160,1.099,0.031,100.000,63809.000,1.000
-5.013,3.208,1.322,-0.673,3.034,5.299,-1.554,-1.893,0.033,0.986,-0.247,1.129,1.160,0.153,100.000,63810.000,1.000
-3.900,4.177,1.911,-0.349,3.193,7.142,0.580,-2.035,0.032,0.988,-0.247,1.190,1.282,0.061,100.000,63811.000,1.000
-2.011,5.425,3.411,0.712,3.731,8.681,2.911,-1.646,0.033,0.990,-0.248,1.160,1.343,0.061,100.000,63812.000,1.000
0.316,6.988,5.457,2.155,4.370,9.636,4.335,-1.294,0.032,0.990,-0.250,1.221,1.373,0.031,100.000,63813.000,1.000
2.687,8.659,7.427,3.531,4.784,10.051,4.391,-1.389,0.030,0.990,-0.248,1.221,1.495,0.031,100.000,63814.000,1.000
4.738,10.043,8.712,4.511,4.747,10.139,3.358,-1.941,0.030,0.991,-0.245,1.190,1.465,0.092,100.000,63815.000,1.000
6.067,10.722,8.924,4.979,4.244,9.957,1.944,-2.516,0.028,0.990,-0.247,1.221,1.526,-0.031,100.000,63816.000,1.000
6.250,10.343,7.963,4.931,3.456,9.305,0.771,-2.519,0.025,0.993,-0.248,1.221,1.434,-0.153,100.000,63817.000,1.000
5.171,8.724,6.078,4.486,2.744,8.044,0.172,-1.493,0.023,0.993,-0.250,1.099,1.465,-0.153,100.000,63818.000,1.000
3.433,6.124,3.956,4.061,2.675,6.404,0.410,0.856,0.024,0.994,-0.249,0.916,1.282,0.061,100.000,63819.000,1.000
2.333,3.399,2.663,4.403,3.893,4.815,1.701,4.724,0.022,0.994,-0.245,0.885,1.160,-0.031,100.000,63820.000,1.000
3.084,1.603,3.094,6.097,6.639,3.398,3.792,9.949,0.022,0.995,-0.248,0.763,1.038,0.092,100.000,63821.000,1.000
5.746,1.273,5.184,8.866,10.253,1.805,5.849,15.583,0.022,0.993,-0.249,0.641,1.007,0.153,100.000,63822.000,1.000
9.008,2.124,7.760,11.542,13.393,-0.317,7.107,20.057,0.022,0.989,-0.248,0.580,0.732,0.092,100.000,63823.000,1.000
11.171,3.432,9.437,12.959,14.936,-2.805,7.526,22.117,0.023,0.989,-0.248,0.580,0.580,0.000,100.000,63824.000,1.000
11.433,4.573,9.660,12.851,14.725,-4.899,7.675,21.595,0.022,0.988,-0.253,0.519,0.458,0.000,100.000,63825.000,1.000
10.294,5.341,8.939,11.954,13.547,-5.643,8.162,19.376,0.022,0.991,-0.251,0.519,0.397,0.061,100.000,63826.000,1.000
8.851,5.877,8.215,11.245,12.410,-4.574,9.182,16.675,0.024,0.995,-0.251,0.549,0.366,0.183,100.000,63827.000,1.000
7.752,6.233,7.954,11.023,11.632,-2.219,10.248,14.091,0.027,0.994,-0.250,0.397,0.214,0.427,100.000,63828.000,1.000
6.866,6.141,7.887,10.756,10.674,0.227,10.400,11.259,0.026,0.992,-0.251,0.275,0.092,0.519,100.000,63829.000,1.000
5.752,5.366,7.492,9.725,8.871,1.886,9.022,7.521,0.026,0.992,-0.254,0.214,0.061,0.549,100.000,63830.000,1.000
4.209,4.051,6.484,7.610,6.088,2.721,6.442,2.845,0.027,0.987,-0.253,0.244,-0.092,0.458,100.000,63831.000,1.000
2.489,2.568,4.923,4.678,2.748,3.136,3.673,-1.882,0.029,0.987,-0.251,0.153,-0.092,0.458,100.000,63832.000,1.000
1.067,1.168,3.112,1.629,-0.506,3.399,1.657,-5.404,0.028,0.986,-0.253,0.183,-0.092,0.519,100.000,63833.000,1.000
0.191,-0.101,1.393,-0.844,-3.186,3.514,0.685,-7.073,0.028,0.987,-0.250,0.305,-0.092,0.366,100.000,63834.000,1.000
-0.316,-1.292,-0.074,-2.484,-5.200,3.301,0.277,-7.351,0.028,0.986,-0.249,0.183,-0.153,0.275,100.000,63835.000,1.000
-0.907,-2.482,-1.434,-3.560,-6.849,2.502,-0.408,-7.347,0.029,0.987,-0.249,0.122,-0.153,0.183,100.000,63836.000,1.000
-1.890,-3.625,-2.894,-4.490,-8.439,1.117,-1.731,-7.823,0.027,0.986,-0.253,0.031,-0.214,0.000,100.000,63837.000,1.000
-3.019,-4.317,-4.254,-5.312,-9.786,-0.263,-3.094,-8.563,0.028,0.985,-0.254,-0.031,-0.214,-0.031,100.000,63838.000,1.000
-3.656,-4.009,-4.915,-5.618,-10.278,-0.866,-3.649,-8.720,0.028,0.985,-0.253,-0.092,-0.214,-0.122,100.000,63839.000,1.000
-3.469,-2.630,-4.466,-5.087,-9.496,-0.543,-3.365,-7.784,0.030,0.987,-0.254,-0.061,-0.183,-0.244,100.000,63840.000,1.000
-2.751,-0.837,-3.097,-3.894,-7.616,0.028,-3.119,-6.073,0.034,0.985,-0.256,0.000,-0.122,-0.244,100.000,63841.000,1.000
-1.893,0.503,-1.314,-2.455,-5.159,-0.152,-3.791,-4.208,0.032,0.985,-0.254,-0.092,-0.092,-0.336,100.000,63842.000,1.000
-0.837,0.992,0.606,-0.906,-2.507,-1.657,-5.380,-2.331,0.033,0.985,-0.253,-0.153,0.031,-0.336,100.000,63843.000,1.000
0.762,0.835,2.718,0.936,0.207,-4.230,-6.891,-0.047,0.031,0.986,-0.253,-0.153,0.000,-0.275,100.000,63844.000,1.000
3.040,0.524,5.095,3.225,2.889,-7.026,-7.102,2.985,0.033,0.985,-0.255,0.000,0.183,-0.305,100.000,63845.000,1.000
5.715,0.481,7.562,5.839,5.307,-9.168,-5.471,6.553,0.033,0.987,-0.257,-0.031,0.183,-0.214,100.000,63846.000,1.000
8.184,0.798,9.636,8.361,7.069,-10.125,-2.491,9.833,0.031,0.987,-0.254,-0.122,0.305,-0.031,100.000,63847.000,1.000
9.713,1.201,10.688,10.162,7.738,-9.833,0.591,11.741,0.033,0.990,-0.253,-0.061,0.427,-0.092,100.000,63848.000,1.000
9.725,1.251,10.254,10.640,7.045,-8.640,2.492,11.544,0.033,0.991,-0.255,-0.092,0.458,-0.092,100.000,63849.000,1.000
8.136,0.618,8.320,9.533,5.076,-7.091,2.673,9.303,0.031,0.992,-0.256,-0.244,0.580,-0.061,100.000,63850.000,1.000
5.427,-0.719,5.368,7.109,2.277,-5.649,1.601,5.800,0.029,0.991,-0.254,-0.275,0.549,0.000,100.000,63851.000,1.000
2.379,-2.423,2.149,4.001,-0.711,-4.450,0.294,2.072,0.029,0.990,-0.254,-0.397,0.671,0.122,100.000,63852.000,1.000
-0.308,-3.972,-0.639,0.870,-3.330,-3.359,-0.489,-1.126,0.028,0.990,-0.251,-0.580,0.641,0.061,100.000,63853.000,1.000
-2.244,-4.961,-2.609,-1.850,-5.362,-2.323,-0.729,-3.630,0.027,0.992,-0.253,-0.702,0.641,-0.031,100.000,63854.000,1.000
-3.336,-5.295,-3.763,-3.984,-6.923,-1.539,-0.881,-5.705,0.028,0.993,-0.254,-0.732,0.702,0.214,100.000,63855.000,1.000
-3.619,-5.116,-4.319,-5.478,-8.131,-1.143,-1.166,-7.503,0.025,0.993,-0.254,-0.763,0.580,0.122,100.000,63856.000,1.000
-3.200,-4.626,-4.479,-6.266,-8.779,-0.877,-1.225,-8.722,0.027,0.993,-0.254,-0.916,0.610,0.183,100.000,63857.000,1.000
-2.365,-3.965,-4.372,-6.328,-8.438,-0.226,-0.486,-8.864,0.027,0.994,-0.254,-1.038,0.488,0.275,100.000,63858.000,1.000
-1.577,-3.229,-4.157,-5.812,-6.892,1.070,1.128,-7.802,0.025,0.995,-0.251,-1.099,0.427,0.397,100.000,63859.000,1.000
-1.287,-2.485,-4.010,-5.018,-4.444,2.725,2.907,-6.012,0.027,0.993,-0.249,-1.251,0.458,0.366,100.000,63860.000,1.000
-1.683,-1.743,-3.972,-4.247,-1.711,4.203,3.802,-4.215,0.028,0.993,-0.248,-1.404,0.397,0.397,100.000,63861.000,1.000
-2.594,-1.028,-3.956,-3.732,0.709,5.072,3.072,-2.984,0.027,0.992,-0.250,-1.556,0.336,0.336,100.000,63862.000,1.000
-3.620,-0.520,-3.899,-3.585,2.415,4.981,0.675,-2.555,0.027,0.994,-0.247,-1.617,0.336,0.244,100.000,63863.000,1.000
-4.270,-0.356,-3.715,-3.610,3.396,3.818,-2.432,-2.595,0.028,0.991,-0.250,-1.862,0.275,0.214,100.000,63864.000,1.000
-4.198,-0.347,-3.255,-3.372,4.049,1.954,-4.661,-2.358,0.029,0.992,-0.252,-1.892,0.214,0.244,100.000,63865.000,1.000
-3.487,-0.174,-2.541,-2.651,4.717,-0.112,-5.004,-1.348,0.031,0.990,-0.250,-1.953,0.214,0.183,100.000,63866.000,1.000
-2.591,0.132,-1.875,-1.613,5.351,-2.159,-3.675,0.456,0.027,0.990,-0.252,-2.075,0.183,0.153,100.000,63867.000,1.000
-1.895,0.174,-1.518,-0.485,5.762,-4.028,-1.456,2.859,0.028,0.993,-0.252,-2.075,0.183,0.122,100.000,63868.000,1.000
-1.372,-0.286,-1.368,0.728,5.981,-5.356,1.126,5.538,0.027,0.991,-0.250,-2.106,0.183,0.061,100.000,63869.000,1.000
-0.640,-1.005,-1.056,2.121,6.162,-5.867,3.741,7.952,0.028,0.989,-0.251,-2.167,0.214,0.153,100.000,63870.000,1.000
0.619,-1.490,-0.307,3.650,6.282,-5.729,5.743,9.381,0.029,0.987,-0.250,-2.167,0.214,0.092,100.000,63871.000,1.000
2.295,-1.359,0.877,5.129,6.164,-5.333,6.218,9.274,0.031,0.985,-0.249,-2.167,0.122,0.153,100.000,63872.000,1.000
3.902,-0.499,2.253,6.344,5.739,-4.813,4.649,7.637,0.028,0.984,-0.248,-2.075,0.000,-0.061,100.000,63873.000,1.000
4.842,0.761,3.308,6.913,4.930,-4.052,1.331,4.937,0.026,0.983,-0.246,-1.953,0.000,-0.031,100.000,63874.000,1.000
4.614,1.659,3.323,6.237,3.451,-2.963,-2.635,1.795,0.028,0.985,-0.249,-1.862,-0.031,-0.061,100.000,63875.000,1.000
3.072,1.521,1.864,3.982,1.097,-1.490,-5.560,-1.104,0.028,0.984,-0.249,-1.770,0.000,-0.183,100.000,63876.000,1.000
0.576,0.353,-0.785,0.542,-1.844,0.544,-5.930,-3.181,0.027,0.983,-0.247,-1.770,-0.061,-0.244,100.000,63877.000,1.000
-2.178,-1.225,-3.819,-3.196,-4.733,3.226,-3.537,-4.346,0.028,0.980,-0.246,-1.556,-0.031,-0.183,100.000,63878.000,1.000
-4.511,-2.557,-6.449,-6.436,-7.015,6.178,0.198,-5.040,0.027,0.981,-0.247,-1.495,-0.031,-0.366,100.000,63879.000,1.000
-6.030,-3.363,-8.227,-8.754,-8.451,8.537,3.186,-5.760,0.027,0.982,-0.246,-1.312,-0.061,-0.397,100.000,63880.000,1.000
-6.767,-3.728,-9.102,-10.106,-9.073,9.473,4.045,-6.662,0.025,0.984,-0.246,-1.190,-0.122,-0.488,100.000,63881.000,1.000
-7.040,-3.794,-9.263,-10.722,-9.010,8.796,2.813,-7.581,0.029,0.985,-0.244,-1.099,-0.153,-0.275,100.000,63882.000,1.000
-7.045,-3.448,-8.827,-10.794,-8.252,7.061,0.613,-8.155,0.028,0.982,-0.245,-1.099,-0.153,-0.336,100.000,63883.000,1.000
-6.692,-2.389,-7.761,-10.268,-6.625,5.229,-1.237,-7.963,0.029,0.984,-0.246,-0.885,-0.122,-0.488,100.000,63884.000,1.000
-5.887,-0.607,-6.188,-9.077,-4.135,4.145,-1.984,-6.832,0.026,0.987,-0.246,-0.793,-0.183,-0.488,100.000,63885.000,1.000
-4.708,1.369,-4.512,-7.392,-1.194,4.074,-1.647,-5.040,0.026,0.986,-0.244,-0.732,-0.153,-0.580,100.000,63886.000,1.000
-3.299,2.840,-3.108,-5.547,1.541,4.566,-0.712,-3.136,0.025,0.990,-0.243,-0.732,-0.153,-0.427,100.000,63887.000,1.000
-1.851,3.414,-2.105,-3.894,3.426,4.723,0.247,-1.598,0.027,0.987,-0.242,-0.641,-0.214,-0.458,100.000,63888.000,1.000
-0.603,3.157,-1.473,-2.662,4.046,3.785,0.742,-0.601,0.027,0.986,-0.245,-0.580,-0.275,-0.366,100.000,63889.000,1.000
0.391,2.487,-1.055,-1.769,3.485,1.703,0.512,0.016,0.025,0.988,-0.244,-0.671,-0.153,-0.183,100.000,63890.000,1.000
1.298,1.933,-0.610,-0.885,2.302,-0.805,-0.335,0.420,0.026,0.989,-0.244,-0.641,-0.122,-0.244,100.000,63891.000,1.000
2.169,1.775,-0.068,0.100,1.003,-2.905,-1.559,0.356,0.026,0.989,-0.246,-0.580,-0.244,-0.183,100.000,63892.000,1.000
2.768,1.909,0.352,0.851,-0.382,-4.335,-3.170,-0.722,0.026,0.990,-0.244,-0.519,-0.214,-0.061,100.000,63893.000,1.000
2.875,2.073,0.474,1.015,-1.987,-5.339,-5.263,-2.948,0.025,0.990,-0.241,-0.488,-0.305,-0.214,100.000,63894.000,1.000
2.521,2.068,0.396,0.614,-3.657,-6.091,-7.501,-5.644,0.024,0.990,-0.242,-0.458,-0.244,0.031,100.000,63895.000,1.000
1.878,1.798,0.280,-0.067,-4.999,-6.412,-9.073,-7.677,0.026,0.992,-0.245,-0.458,-0.275,0.000,100.000,63896.000,1.000
1.166,1.304,0.180,-0.701,-5.698,-5.938,-9.211,-8.156,0.026,0.989,-0.242,-0.397,-0.336,-0.122,100.000,63897.000,1.000
0.593,0.698,0.042,-1.075,-5.712,-4.435,-7.754,-6.970,0.025,0.988,-0.245,-0.397,-0.275,-0.122,100.000,63898.000,1.000
0.182,0.029,-0.296,-1.217,-5.289,-2.057,-5.232,-4.781,0.025,0.989,-0.245,-0.305,-0.305,-0.122,100.000,63899.000,1.000
-0.305,-0.687,-1.044,-1.368,-4.805,0.542,-2.550,-2.543,0.027,0.991,-0.242,-0.275,-0.214,-0.061,100.000,63900.000,1.000
-1.223,-1.387,-2.317,-1.799,-4.569,2.471,-0.565,-0.982,0.025,0.991,-0.241,-0.336,-0.244,0.061,100.000,63901.000,1.000
-2.758,-1.959,-4.023,-2.650,-4.692,3.225,0.363,-0.362,0.028,0.991,-0.244,-0.275,-0.244,0.214,100.000,63902.000,1.000
-4.781,-2.363,-5.887,-3.912,-5.104,3.043,0.518,-0.540,0.029,0.990,-0.242,-0.305,-0.122,0.183,100.000,63903.000,1.000
-6.900,-2.649,-7.528,-5.448,-5.551,2.713,0.550,-1.170,0.030,0.991,-0.243,-0.275,-0.031,0.000,100.000,63904.000,1.000
-8.468,-2.685,-8.396,-6.834,-5.450,3.222,1.132,-1.775,0.029,0.991,-0.244,-0.427,-0.061,0.092,100.000,63905.000,1.000
-8.705,-2.094,-7.878,-7.364,-4.070,5.220,2.592,-1.907,0.029,0.991,-0.245,-0.336,0.092,0.214,100.000,63906.000,1.000
-7.203,-0.651,-5.805,-6.572,-1.238,8.275,4.432,-1.560,0.029,0.991,-0.245,-0.397,0.153,0.122,100.000,63907.000,1.000
-4.314,1.438,-2.717,-4.619,2.322,10.794,5.463,-1.166,0.030,0.990,-0.246,-0.366,0.214,0.092,100.000,63908.000,1.000
-0.869,3.729,0.595,-2.022,5.620,11.189,4.967,-0.936,0.030,0.989,-0.244,-0.336,0.275,0.183,100.000,63909.000,1.000
2.344,5.777,3.595,0.740,8.107,9.164,3.451,-0.489,0.030,0.988,-0.242,-0.275,0.183,0.214,100.000,63910.000,1.000
4.793,7.140,6.008,3.224,9.600,5.672,1.934,0.626,0.031,0.989,-0.244,-0.275,0.275,0.183,100.000,63911.000,1.000
6.213,7.425,7.630,4.957,9.923,1.897,0.932,2.349,0.030,0.990,-0.244,-0.305,0.336,0.122,100.000,63912.000,1.000
6.616,6.499,8.348,5.674,8.980,-1.367,0.430,4.210,0.029,0.991,-0.245,-0.305,0.519,0.183,100.000,63913.000,1.000
6.288,4.666,8.265,5.544,7.014,-3.739,0.310,5.710,0.029,0.988,-0.246,-0.214,0.427,0.305,100.000,63914.000,1.000
5.650,2.521,7.615,4.978,4.451,-5.336,0.275,6.408,0.028,0.986,-0.243,-0.153,0.427,0.153,100.000,63915.000,1.000
5.013,0.602,6.617,4.317,1.657,-6.684,-0.216,6.019,0.028,0.986,-0.243,-0.183,0.427,0.092,100.000,63916.000,1.000
4.488,-0.715,5.547,3.861,-0.885,-8.063,-1.325,4.838,0.028,0.987,-0.248,-0.153,0.397,0.092,100.000,63917.000,1.000
4.049,-1.234,4.743,3.870,-2.569,-9.108,-2.562,3.578,0.027,0.987,-0.246,-0.153,0.488,0.031,100.000,63918.000,1.000
3.555,-1.073,4.337,4.220,-3.181,-9.365,-3.467,2.373,0.027,0.988,-0.248,-0.122,0.427,0.092,100.000,63919.000,1.000
2.867,-0.657,4.162,4.361,-3.109,-8.866,-3.971,0.649,0.026,0.989,-0.247,0.031,0.458,0.061,100.000,63920.000,1.000
2.077,-0.410,4.060,3.866,-2.816,-7.906,-3.963,-1.663,0.027,0.988,-0.248,0.000,0.458,0.122,100.000,63921.000,1.000
1.514,-0.500,4.106,2.868,-2.354,-6.569,-3.151,-3.528,0.027,0.987,-0.248,0.000,0.549,0.092,100.000,63922.000,1.000
1.449,-0.850,4.489,1.892,-1.463,-4.726,-1.430,-3.716,0.026,0.987,-0.249,0.000,0.519,0.275,100.000,63923.000,1.000
1.813,-1.261,5.240,1.399,0.051,-2.272,1.027,-1.720,0.028,0.988,-0.246,-0.031,0.458,0.153,100.000,63924.000,1.000
2.274,-1.511,6.138,1.572,2.097,0.845,3.992,2.182,0.028,0.987,-0.247,0.000,0.458,0.092,100.000,63925.000,1.000
2.559,-1.391,6.882,2.390,4.381,4.587,7.197,7.010,0.029,0.987,-0.247,0.000,0.427,0.092,100.000,63926.000,1.000
2.604,-0.836,7.272,3.697,6.526,8.556,10.090,11.167,0.027,0.988,-0.248,0.031,0.427,0.244,100.000,63927.000,1.000
2.402,-0.061,7.183,5.103,8.111,11.875,11.820,13.123,0.027,0.988,-0.245,-0.031,0.427,0.153,100.000,63928.000,1.000
1.872,0.639,6.523,5.943,8.807,13.627,11.702,12.292,0.029,0.987,-0.247,0.061,0.549,0.092,100.000,63929.000,1.000
1.008,1.209,5.354,5.619,8.587,13.510,9.766,9.237,0.026,0.990,-0.246,-0.031,0.519,0.183,100.000,63930.000,1.000
0.102,1.767,4.019,4.117,7.765,11.987,6.770,5.187,0.028,0.987,-0.248,-0.031,0.488,0.244,100.000,63931.000,1.000
-0.349,2.346,2.989,2.086,6.745,9.848,3.826,1.422,0.027,0.987,-0.247,-0.031,0.488,0.153,100.000,63932.000,1.000
0.021,2.775,2.557,0.441,5.753,7.654,1.901,-1.101,0.027,0.988,-0.249,-0.092,0.427,0.061,100.000,63933.000,1.000
1.277,2.766,2.691,-0.057,4.767,5.426,1.183,-1.939,0.026,0.990,-0.249,-0.031,0.366,0.153,100.000,63934.000,1.000
3.153,2.138,3.085,0.819,3.593,2.774,0.809,-1.381,0.028,0.992,-0.248,-0.092,0.488,0.122,100.000,63935.000,1.000
5.049,0.991,3.255,2.530,1.990,-0.621,-0.388,-0.408,0.026,0.990,-0.250,-0.061,0.549,0.122,100.000,63936.000,1.000
6.225,-0.339,2.717,3.967,-0.151,-4.574,-2.779,-0.076,0.027,0.991,-0.248,-0.183,0.397,0.122,100.000,63937.000,1.000
6.200,-1.477,1.322,4.186,-2.601,-8.327,-5.642,-0.772,0.029,0.993,-0.250,-0.214,0.366,0.122,100.000,63938.000,1.000
4.945,-2.231,-0.619,3.084,-4.812,-10.978,-7.843,-1.978,0.029,0.992,-0.249,-0.305,0.397,0.122,100.000,63939.000,1.000
2.762,-2.755,-2.629,1.351,-6.287,-12.144,-8.763,-2.731,0.028,0.992,-0.251,-0.366,0.366,0.183,100.000,63940.000,1.000
0.112,-3.424,-4.404,-0.149,-6.895,-12.129,-8.616,-2.327,0.030,0.991,-0.251,-0.427,0.458,0.336,100.000,63941.000,1.000
-2.483,-4.413,-5.836,-0.909,-6.730,-11.378,-7.867,-0.655,0.029,0.988,-0.249,-0.488,0.458,0.244,100.000,63942.000,1.000
-4.476,-5.398,-6.851,-0.881,-5.811,-9.915,-6.537,1.954,0.030,0.990,-0.246,-0.549,0.427,0.336,100.000,63943.000,1.000
-5.417,-5.782,-7.408,-0.339,-4.142,-7.444,-4.298,4.867,0.030,0.992,-0.247,-0.458,0.458,0.244,100.000,63944.000,1.000
-5.189,-5.222,-7.588,0.228,-2.025,-3.901,-1.160,7.202,0.030,0.990,-0.247,-0.549,0.488,0.305,100.000,63945.000,1.000
-4.125,-3.905,-7.584,0.292,-0.076,0.261,2.260,8.143,0.031,0.992,-0.245,-0.519,0.488,0.366,100.000,63946.000,1.000
-2.773,-2.395,-7.595,-0.441,1.095,4.258,5.082,7.416,0.029,0.990,-0.242,-0.732,0.549,0.336,100.000,63947.000,1.000
-1.596,-1.267,-7.726,-1.885,1.142,7.246,6.620,5.337,0.030,0.990,-0.247,-0.732,0.458,0.427,100.000,63948.000,1.000
-0.932,-0.831,-7.970,-3.713,0.060,8.626,6.668,2.435,0.029,0.991,-0.249,-0.702,0.427,0.305,100.000,63949.000,1.000
-0.992,-1.030,-8.196,-5.546,-1.807,8.412,5.535,-0.779,0.030,0.989,-0.248,-0.732,0.397,0.336,100.000,63950.000,1.000
-1.633,-1.461,-8.097,-6.975,-3.814,7.258,3.866,-3.712,0.031,0.988,-0.248,-0.793,0.397,0.366,100.000,63951.000,1.000
-2.247,-1.570,-7.288,-7.557,-5.282,5.879,2.196,-5.741,0.031,0.988,-0.246,-0.702,0.397,0.366,100.000,63952.000,1.000
-2.153,-1.025,-5.655,-7.112,-5.993,4.462,0.421,-6.759,0.030,0.989,-0.246,-0.702,0.458,0.366,100.000,63953.000,1.000
-1.190,0.033,-3.639,-6.061,-6.398,2.758,-2.073,-7.457,0.029,0.989,-0.248,-0.732,0.488,0.336,100.000,63954.000,1.000
0.207,1.199,-1.924,-5.120,-7.126,0.660,-5.425,-8.571,0.030,0.989,-0.250,-0.641,0.427,0.336,100.000,63955.000,1.000
1.526,2.259,-0.779,-4.513,-8.229,-1.474,-8.760,-9.949,0.031,0.987,-0.250,-0.641,0.458,0.397,100.000,63956.000,1.000
2.645,3.175,0.080,-3.727,-9.089,-3.206,-10.925,-10.774,0.029,0.986,-0.252,-0.549,0.397,0.366,100.000,63957.000,1.000
3.704,3.778,1.036,-2.093,-9.018,-4.525,-11.429,-10.383,0.028,0.987,-0.249,-0.641,0.366,0.427,100.000,63958.000,1.000
4.710,3.814,2.168,0.544,-7.803,-5.774,-10.569,-8.589,0.027,0.988,-0.247,-0.641,0.397,0.305,100.000,63959.000,1.000
5.308,3.057,3.097,3.572,-5.910,-7.326,-9.172,-5.718,0.029,0.988,-0.250,-0.641,0.397,0.305,100.000,63960.000,1.000
5.024,1.386,3.168,5.905,-4.256,-9.382,-8.179,-2.584,0.028,0.989,-0.250,-0.610,0.275,0.214,100.000,63961.000,1.000
3.722,-0.963,2.007,6.697,-3.534,-11.733,-8.002,0.000,0.027,0.989,-0.250,-0.610,0.305,0.183,100.000,63962.000,1.000
1.731,-3.379,-0.099,5.876,-3.744,-13.620,-8.196,1.759,0.029,0.989,-0.250,-0.580,0.244,0.153,100.000,63963.000,1.000
-0.378,-5.200,-2.351,4.140,-4.272,-14.071,-7.816,2.920,0.030,0.986,-0.249,-0.519,0.122,0.153,100.000,63964.000,1.000
-2.067,-5.990,-3.913,2.492,-4.278,-12.498,-6.060,3.814,0.029,0.986,-0.247,-0.610,0.153,0.092,100.000,63965.000,1.000
-3.149,-5.646,-4.434,1.551,-3.203,-9.095,-2.835,4.542,0.030,0.986,-0.250,-0.519,0.122,-0.031,100.000,63966.000,1.000
-3.973,-4.462,-4.282,1.106,-1.197,-4.794,1.015,4.880,0.031,0.987,-0.250,-0.519,0.092,-0.092,100.000,63967.000,1.000
-5.119,-3.006,-4.231,0.402,0.980,-0.766,4.204,4.533,0.031,0.988,-0.249,-0.519,0.092,-0.031,100.000,63968.000,1.000
-6.746,-1.750,-4.756,-1.069,2.636,2.289,6.041,3.593,0.030,0.988,-0.251,-0.549,0.122,-0.061,100.000,63969.000,1.000
-8.373,-0.831,-5.660,-3.097,3.652,4.427,6.880,2.566,0.028,0.988,-0.248,-0.549,0.031,-0.092,100.000,63970.000,1.000
-9.400,-0.257,-6.404,-5.057,4.243,6.039,7.437,1.795,0.027,0.986,-0.249,-0.519,-0.031,-0.153,100.000,63971.000,1.000
-9.620,-0.074,-6.572,-6.438,4.518,7.297,8.005,1.226,0.027,0.987,-0.248,-0.519,-0.122,-0.153,100.000,63972.000,1.000
-9.123,-0.205,-5.920,-6.936,4.508,8.035,8.377,0.822,0.028,0.988,-0.249,-0.610,-0.122,-0.122,100.000,63973.000,1.000
-7.953,-0.338,-4.252,-6.328,4.368,8.004,8.211,0.677,0.028,0.988,-0.251,-0.580,-0.092,-0.153,100.000,63974.000,1.000
-6.031,-0.113,-1.525,-4.516,4.324,7.164,7.385,0.660,0.028,0.990,-0.246,-0.610,-0.214,-0.122,100.000,63975.000,1.000
-3.388,0.591,1.900,-1.741,4.394,5.640,6.032,0.398,0.027,0.989,-0.248,-0.671,-0.244,-0.214,100.000,63976.000,1.000
-0.467,1.522,5.186,1.234,4.211,3.442,4.200,-0.445,0.026,0.989,-0.248,-0.732,-0.214,-0.214,100.000,63977.000,1.000
1.852,2.104,7.253,3.256,3.133,0.449,1.628,-2.178,0.027,0.989,-0.250,-0.793,-0.244,-0.183,100.000,63978.000,1.000
2.701,1.761,7.359,3.468,0.743,-3.273,-1.860,-4.903,0.028,0.988,-0.249,-0.854,-0.336,-0.244,100.000,63979.000,1.000
1.907,0.367,5.675,2.086,-2.572,-7.224,-5.730,-8.025,0.028,0.991,-0.249,-0.824,-0.366,-0.244,100.000,63980.000,1.000
0.207,-1.540,3.310,0.370,-5.578,-10.441,-8.613,-10.279,0.028,0.991,-0.250,-0.977,-0.366,-0.214,100.000,63981.000,1.000
-1.230,-3.034,1.673,-0.257,-6.867,-11.824,-8.992,-10.430,0.029,0.991,-0.247,-1.038,-0.458,-0.183,100.000,63982.000,1.000
-1.497,-3.397,1.663,0.900,-5.705,-10.840,-6.383,-7.968,0.028,0.992,-0.247,-1.038,-0.458,-0.275,100.000,63983.000,1.000
-0.322,-2.533,3.299,3.606,-2.372,-7.933,-1.849,-3.317,0.028,0.992,-0.247,-0.977,-0.488,-0.305,100.000,63984.000,1.000
2.061,-0.822,6.006,7.137,2.235,-4.091,2.918,2.532,0.028,0.991,-0.247,-1.068,-0.336,-0.244,100.000,63985.000,1.000
5.144,1.313,9.086,10.751,7.184,-0.197,6.748,8.567,0.027,0.990,-0.247,-1.129,-0.488,-0.275,100.000,63986.000,1.000
8.207,3.638,11.928,13.863,11.778,3.198,9.271,14.046,0.026,0.991,-0.247,-1.190,-0.458,-0.214,100.000,63987.000,1.000
10.452,6.026,14.025,16.074,15.586,5.883,10.738,18.498,0.024,0.988,-0.249,-1.282,-0.519,-0.031,100.000,63988.000,1.000
11.240,8.109,14.868,17.026,18.278,7.917,11.658,21.521,0.025,0.990,-0.249,-1.251,-0.549,-0.122,100.000,63989.000,1.000
10.176,9.172,13.923,16.226,19.424,9.375,12.232,22.567,0.027,0.989,-0.250,-1.251,-0.549,-0.275,100.000,63990.000,1.000
7.238,8.623,10.958,13.273,18.596,10.206,12.156,21.070,0.029,0.989,-0.250,-1.221,-0.519,-0.244,100.000,63991.000,1.000
3.054,6.510,6.451,8.381,15.761,10.355,11.052,16.947,0.027,0.991,-0.250,-1.129,-0.519,-0.122,100.000,63992.000,1.000
-1.079,3.538,1.542,2.586,11.507,9.938,9.046,10.952,0.026,0.990,-0.249,-1.160,-0.549,-0.061,100.000,63993.000,1.000
-3.751,0.723,-2.477,-2.684,6.852,9.160,6.850,4.459,0.025,0.988,-0.247,-1.160,-0.580,0.000,100.000,63994.000,1.000
-4.201,-1.089,-4.751,-6.336,2.736,8.083,5.104,-1.126,0.027,0.988,-0.249,-1.190,-0.549,-0.061,100.000,63995.000,1.000
-2.674,-1.607,-5.150,-8.019,-0.360,6.596,3.713,-4.925,0.028,0.989,-0.249,-1.099,-0.549,-0.153,100.000,63996.000,1.000
-0.081,-1.056,-4.105,-7.954,-2.371,4.715,2.089,-6.832,0.029,0.991,-0.248,-1.129,-0.549,-0.275,100.000,63997.000,1.000
2.586,0.172,-2.242,-6.580,-3.374,2.761,-0.086,-7.383,0.030,0.990,-0.247,-1.068,-0.488,-0.153,100.000,63998.000,1.000
4.590,1.675,-0.200,-4.484,-3.577,1.071,-2.665,-7.382,0.030,0.988,-0.246,-1.129,-0.336,-0.183,100.000,63999.000,1.000
5.551,3.004,1.431,-2.402,-3.410,-0.286,-5.310,-7.450,0.030,0.987,-0.249,-1.068,-0.366,-0.153,100.000,64000.000,1.000
5.597,3.859,2.362,-0.844,-3.314,-1.379,-7.603,-7.683,0.032,0.987,-0.247,-1.190,-0.275,0.000,100.000,64001.000,1.000
5.262,4.214,2.689,0.200,-3.505,-2.312,-9.171,-7.779,0.030,0.982,-0.250,-1.129,-0.244,-0.061,100.000,64002.000,1.000
5.037,4.140,2.660,0.988,-3.968,-3.233,-9.831,-7.433,0.031,0.979,-0.250,-0.946,-0.153,-0.031,100.000,64003.000,1.000
5.032,3.714,2.523,1.696,-4.410,-4.108,-9.457,-6.418,0.031,0.979,-0.249,-0.702,-0.092,-0.061,100.000,64004.000,1.000
4.973,3.048,2.437,2.349,-4.374,-4.660,-7.989,-4.633,0.029,0.982,-0.250,-0.610,0.000,-0.061,100.000,64005.000,1.000
4.418,2.145,2.272,2.753,-3.719,-4.789,-5.844,-2.486,0.031,0.985,-0.250,-0.397,0.061,0.092,100.000,64006.000,1.000
3.160,0.958,1.707,2.589,-2.784,-4.684,-3.857,-0.905,0.030,0.986,-0.249,-0.336,0.183,0.061,100.000,64007.000,1.000
1.457,-0.336,0.622,1.710,-1.970,-4.380,-2.592,-0.684,0.029,0.987,-0.248,-0.336,0.336,0.061,100.000,64008.000,1.000
-0.269,-1.395,-0.847,0.205,-1.436,-3.560,-1.947,-1.937,0.030,0.988,-0.248,-0.275,0.458,0.061,100.000,64009.000,1.000
-1.907,-2.132,-2.601,-1.808,-1.247,-2.014,-1.514,-4.073,0.030,0.987,-0.252,-0.214,0.519,0.183,100.000,64010.000,1.000
-3.662,-2.850,-4.691,-4.263,-1.543,-0.141,-1.161,-6.196,0.031,0.988,-0.249,-0.122,0.519,0.061,100.000,64011.000,1.000
-5.718,-3.980,-7.156,-7.040,-2.463,1.268,-1.146,-7.637,0.031,0.991,-0.249,-0.122,0.671,0.092,100.000,64012.000,1.000
-8.000,-5.682,-9.808,-9.870,-3.956,1.714,-1.658,-8.189,0.030,0.990,-0.246,-0.092,0.641,0.122,100.000,64013.000,1.000
-10.176,-7.661,-12.229,-12.427,-5.775,1.254,-2.542,-8.059,0.027,0.991,-0.248,-0.061,0.702,-0.031,100.000,64014.000,1.000
-11.895,-9.356,-14.025,-14.516,-7.618,0.277,-3.450,-7.715,0.026,0.995,-0.244,-0.305,0.702,-0.214,100.000,64015.000,1.000
-13.010,-10.310,-15.045,-16.083,-9.176,-0.650,-3.938,-7.541,0.025,0.995,-0.243,-0.671,0.702,-0.275,100.000,64016.000,1.000
-13.599,-10.402,-15.344,-17.092,-10.160,-0.936,-3.503,-7.518,0.025,0.996,-0.248,-0.702,0.610,-0.427,100.000,64017.000,1.000
-13.788,-9.782,-14.997,-17.471,-10.430,-0.373,-1.926,-7.374,0.025,0.997,-0.247,-0.854,0.641,-0.519,100.000,64018.000,1.000
-13.554,-8.613,-13.962,-17.122,-10.076,0.664,0.378,-6.981,0.025,0.997,-0.247,-1.007,0.549,-0.519,100.000,64019.000,1.000
-12.661,-6.911,-12.067,-15.914,-9.305,1.546,2.406,-6.477,0.025,0.995,-0.245,-1.129,0.488,-0.458,100.000,64020.000,1.000
-10.829,-4.706,-9.188,-13.767,-8.287,1.835,3.058,-6.049,0.026,0.995,-0.249,-1.221,0.519,-0.519,100.000,64021.000,1.000
-8.016,-2.298,-5.526,-10.843,-7.137,1.462,1.907,-5.754,0.024,0.996,-0.247,-1.343,0.458,-0.519,100.000,64022.000,1.000
-4.532,-0.207,-1.658,-7.579,-5.980,0.613,-0.497,-5.511,0.025,0.995,-0.246,-1.251,0.488,-0.336,100.000,64023.000,1.000
-0.875,1.166,1.809,-4.399,-4.920,-0.482,-3.149,-5.156,0.022,0.996,-0.247,-1.282,0.519,-0.305,100.000,64024.000,1.000
2.533,1.835,4.601,-1.445,-3.907,-1.622,-5.184,-4.542,0.021,0.994,-0.246,-1.312,0.366,-0.244,100.000,64025.000,1.000
5.427,2.135,6.734,1.315,-2.716,-2.517,-6.041,-3.712,0.023,0.995,-0.244,-1.434,0.305,-0.092,100.000,64026.000,1.000
7.523,2.316,8.174,3.710,-1.221,-2.859,-5.525,-2.984,0.021,0.997,-0.243,-1.556,0.183,0.000,100.000,64027.000,1.000
8.376,2.203,8.633,5.237,0.286,-2.676,-4.029,-2.806,0.020,0.994,-0.241,-1.617,0.092,0.214,100.000,64028.000,1.000
7.665,1.444,7.858,5.508,1.257,-2.394,-2.482,-3.409,0.019,0.994,-0.241,-1.709,-0.061,0.336,100.000,64029.000,1.000
5.739,0.134,6.157,4.823,1.496,-2.379,-1.615,-4.422,0.020,0.992,-0.240,-1.678,-0.153,0.275,100.000,64030.000,1.000
3.559,-1.048,4.402,4.051,1.404,-2.639,-1.338,-4.967,0.022,0.993,-0.239,-1.709,-0.183,0.275,100.000,64031.000,1.000
1.965,-1.437,3.368,3.875,1.529,-2.992,-1.077,-4.352,0.022,0.993,-0.238,-1.770,-0.275,0.336,100.000,64032.000,1.000
1.205,-0.929,3.226,4.344,2.073,-3.231,-0.513,-2.607,0.022,0.992,-0.238,-1.740,-0.305,0.336,100.000,64033.000,1.000
1.158,0.041,3.639,5.067,2.825,-3.101,0.201,-0.304,0.022,0.990,-0.241,-1.740,-0.427,0.427,100.000,64034.000,1.000
1.604,0.879,4.102,5.573,3.390,-2.407,0.723,2.018,0.022,0.989,-0.240,-1.831,-0.488,0.427,100.000,64035.000,1.000
2.254,1.241,4.280,5.606,3.560,-1.125,1.012,4.196,0.022,0.986,-0.241,-1.862,-0.427,0.458,100.000,64036.000,1.000
2.928,1.311,4.287,5.364,3.619,0.705,1.589,6.377,0.025,0.985,-0.242,-1.770,-0.397,0.366,100.000,64037.000,1.000
3.742,1.707,4.558,5.312,4.136,2.989,3.101,8.684,0.027,0.985,-0.240,-1.648,-0.366,0.366,100.000,64038.000,1.000
4.840,2.955,5.329,5.675,5.416,5.393,5.556,10.917,0.028,0.986,-0.239,-1.617,-0.427,0.397,100.000,64039.000,1.000
6.041,5.078,6.442,6.275,7.276,7.394,8.210,12.585,0.032,0.982,-0.239,-1.373,-0.336,0.366,100.000,64040.000,1.000
6.940,7.627,7.581,6.803,9.232,8.598,10.115,13.276,0.033,0.982,-0.241,-1.251,-0.244,0.427,100.000,64041.000,1.000
7.266,10.015,8.544,7.094,10.778,9.032,10.755,13.048,0.034,0.981,-0.240,-1.129,-0.061,0.488,100.000,64042.000,1.000
7.101,11.806,9.323,7.209,11.653,9.200,10.416,12.525,0.036,0.981,-0.240,-0.916,0.031,0.549,100.000,64043.000,1.000
6.742,12.676,9.895,7.276,11.782,9.585,9.773,12.382,0.036,0.980,-0.243,-0.824,0.122,0.549,100.000,64044.000,1.000
6.307,12.197,9.914,7.197,10.912,9.953,8.944,12.536,0.035,0.980,-0.239,-0.549,0.244,0.519,100.000,64045.000,1.000
5.617,10.052,8.887,6.669,8.704,9.441,7.344,12.100,0.034,0.980,-0.240,-0.366,0.427,0.580,100.000,64046.000,1.000
4.455,6.565,6.744,5.596,5.346,7.402,4.582,10.333,0.034,0.979,-0.241,-0.153,0.458,0.458,100.000,64047.000,1.000
2.778,2.777,4.039,4.278,1.739,4.082,1.091,7.421,0.033,0.979,-0.242,0.000,0.641,0.580,100.000,64048.000,1.000
0.759,-0.087,1.563,3.134,-1.038,0.497,-2.119,4.230,0.034,0.981,-0.242,0.244,0.793,0.458,100.000,64049.000,1.000
-1.191,-1.251,-0.135,2.337,-2.400,-2.313,-4.108,1.493,0.033,0.982,-0.242,0.458,1.007,0.641,100.000,64050.000,1.000
-2.591,-0.693,-0.925,1.728,-2.458,-3.873,-4.474,-0.631,0.032,0.983,-0.242,0.702,0.977,0.580,100.000,64051.000,1.000
-3.174,0.995,-0.964,1.062,-1.717,-4.243,-3.454,-2.355,0.032,0.983,-0.240,0.885,1.160,0.458,100.000,64052.000,1.000
-3.037,2.924,-0.524,0.296,-0.699,-3.793,-1.807,-3.836,0.031,0.988,-0.241,0.916,1.190,0.366,100.000,64053.000,1.000
-2.518,4.252,0.084,-0.401,0.276,-3.063,-0.415,-4.900,0.031,0.987,-0.243,0.946,1.312,0.305,100.000,64054.000,1.000
-1.933,4.574,0.584,-0.889,1.152,-2.492,0.229,-5.139,0.031,0.987,-0.242,1.068,1.282,0.305,100.000,64055.000,1.000
-1.514,3.969,0.674,-1.339,1.885,-2.212,0.086,-4.506,0.028,0.988,-0.244,1.251,1.190,0.275,100.000,64056.000,1.000
-1.591,2.611,-0.057,-2.237,2.185,-2.133,-0.720,-3.644,0.027,0.988,-0.244,1.312,1.251,0.336,100.000,64057.000,1.000
-2.469,0.642,-1.830,-3.873,1.795,-2.017,-1.821,-3.211,0.027,0.990,-0.245,1.343,1.129,0.122,100.000,64058.000,1.000
-4.004,-1.538,-4.220,-5.806,1.000,-1.448,-2.404,-3.111,0.026,0.991,-0.244,1.404,1.129,0.153,100.000,64059.000,1.000
-5.558,-3.217,-6.277,-7.077,0.570,0.032,-1.567,-2.695,0.026,0.993,-0.244,1.434,1.068,0.214,100.000,64060.000,1.000
-6.561,-3.831,-7.234,-7.045,1.134,2.507,0.980,-1.437,0.025,0.994,-0.244,1.404,1.068,0.061,100.000,64061.000,1.000
-6.901,-3.371,-7.008,-5.920,2.664,5.433,4.596,0.725,0.023,0.995,-0.244,1.373,0.946,0.061,100.000,64062.000,1.000
-6.651,-2.163,-5.932,-4.415,4.640,7.958,8.082,3.443,0.023,0.997,-0.244,1.282,0.763,-0.061,100.000,64063.000,1.000
-5.773,-0.505,-4.277,-3.130,6.453,9.383,10.330,6.035,0.020,0.994,-0.245,1.251,0.732,0.000,100.000,64064.000,1.000
-4.222,1.287,-2.241,-2.301,7.574,9.429,10.816,7.658,0.020,0.991,-0.243,1.221,0.671,-0.031,100.000,64065.000,1.000
-2.076,2.763,-0.070,-1.749,7.669,8.314,9.813,7.868,0.022,0.990,-0.246,1.129,0.427,0.153,100.000,64066.000,1.000
0.425,3.499,1.966,-0.974,6.703,6.388,7.955,6.991,0.024,0.989,-0.247,1.068,0.275,0.092,100.000,64067.000,1.000
2.851,3.372,3.646,0.456,4.895,3.736,5.621,5.671,0.028,0.990,-0.250,1.007,0.153,0.183,100.000,64068.000,1.000
4.712,2.695,4.883,2.617,2.706,0.490,3.024,4.326,0.029,0.990,-0.249,1.068,0.122,0.244,100.000,64069.000,1.000
5.689,1.984,5.717,5.196,0.705,-2.875,0.544,3.164,0.030,0.995,-0.249,1.160,0.122,0.305,100.000,64070.000,1.000
5.774,1.528,6.132,7.582,-0.841,-5.955,-1.573,2.220,0.028,0.997,-0.248,1.221,0.061,0.366,100.000,64071.000,1.000
5.313,1.284,6.031,9.164,-2.111,-8.609,-3.551,1.249,0.028,0.997,-0.247,1.038,0.000,0.336,100.000,64072.000,1.000
4.814,1.013,5.354,9.604,-3.427,-10.585,-5.727,-0.049,0.030,0.991,-0.245,0.946,-0.122,0.519,100.000,64073.000,1.000
4.488,0.365,4.042,8.761,-4.979,-11.421,-8.011,-1.655,0.030,0.989,-0.248,0.854,-0.061,0.397,100.000,64074.000,1.000
4.103,-0.879,2.115,6.655,-6.684,-10.796,-9.823,-3.254,0.031,0.988,-0.250,0.916,-0.031,0.397,100.000,64075.000,1.000
3.449,-2.480,-0.100,3.695,-8.130,-8.786,-10.452,-4.458,0.029,0.989,-0.251,0.824,0.061,0.397,100.000,64076.000,1.000
2.728,-3.846,-1.967,0.710,-8.756,-5.887,-9.511,-4.914,0.030,0.991,-0.248,0.824,-0.031,0.366,100.000,64077.000,1.000
2.437,-4.462,-2.879,-1.401,-8.250,-2.885,-7.256,-4.495,0.027,0.991,-0.251,0.916,-0.061,0.275,100.000,64078.000,1.000
2.959,-4.218,-2.620,-2.099,-6.786,-0.608,-4.556,-3.480,0.028,0.988,-0.252,0.641,-0.031,0.122,100.000,64079.000,1.000
4.163,-3.483,-1.545,-1.441,-4.865,0.503,-2.301,-2.288,0.031,0.989,-0.252,0.671,0.000,-0.031,100.000,64080.000,1.000
5.351,-2.850,-0.383,0.077,-2.878,0.745,-0.621,-0.920,0.030,0.989,-0.251,0.519,0.000,-0.122,100.000,64081.000,1.000
5.604,-2.770,0.116,1.794,-0.981,0.868,1.070,0.976,0.031,0.990,-0.253,0.458,0.092,-0.244,100.000,64082.000,1.000
4.252,-3.402,-0.581,3.012,0.660,1.316,3.131,3.389,0.031,0.990,-0.251,0.427,0.061,-0.336,100.000,64083.000,1.000
1.390,-4.531,-2.535,3.244,1.853,2.014,5.164,5.693,0.033,0.991,-0.249,0.397,0.092,-0.458,100.000,64084.000,1.000
-1.984,-5.629,-5.181,2.507,2.567,2.816,6.487,7.241,0.032,0.990,-0.254,0.336,0.153,-0.427,100.000,64085.000,1.000
-4.619,-6.214,-7.650,1.227,2.904,3.721,6.765,7.976,0.030,0.989,-0.254,0.122,0.183,-0.488,100.000,64086.000,1.000
-5.808,-6.135,-9.192,-0.046,2.998,4.709,6.161,8.354,0.029,0.987,-0.253,0.122,0.244,-0.580,100.000,64087.000,1.000
-5.503,-5.488,-9.408,-0.856,2.989,5.566,5.115,8.784,0.030,0.988,-0.254,0.183,0.275,-0.549,100.000,64088.000,1.000
-4.022,-4.473,-8.329,-0.953,2.941,5.847,4.132,9.304,0.029,0.988,-0.256,0.092,0.275,-0.519,100.000,64089.000,1.000
-1.871,-3.368,-6.346,-0.259,2.777,5.062,3.563,9.685,0.027,0.990,-0.254,0.092,0.305,-0.427,100.000,64090.000,1.000
0.346,-2.443,-3.994,1.170,2.351,3.002,3.265,9.528,0.028,0.988,-0.253,0.061,0.275,-0.397,100.000,64091.000,1.000
2.100,-1.821,-1.740,3.027,1.528,-0.077,2.560,8.337,0.028,0.989,-0.252,0.122,0.153,-0.336,100.000,64092.000,1.000
3.007,-1.516,0.037,4.679,0.194,-3.671,0.722,5.747,0.025,0.990,-0.254,0.061,0.092,-0.275,100.000,64093.000,1.000
2.747,-1.632,0.949,5.316,-1.817,-7.342,-2.521,1.658,0.024,0.989,-0.252,-0.183,0.092,-0.275,100.000,64094.000,1.000
1.176,-2.215,0.702,4.368,-4.608,-10.641,-6.803,-3.715,0.024,0.991,-0.251,-0.275,0.061,-0.122,100.000,64095.000,1.000
-1.395,-2.990,-0.635,1.889,-7.945,-12.906,-11.276,-9.708,0.022,0.992,-0.252,-0.366,-0.031,-0.092,100.000,64096.000,1.000
-4.227,-3.628,-2.651,-1.512,-11.254,-13.516,-15.004,-15.271,0.023,0.992,-0.251,-0.427,0.000,-0.031,100.000,64097.000,1.000
-6.586,-4.133,-4.923,-5.063,-13.945,-12.404,-17.371,-19.395,0.024,0.990,-0.252,-0.427,-0.122,0.153,100.000,64098.000,1.000
-8.156,-4.705,-7.236,-8.175,-15.659,-10.248,-18.356,-21.613,0.024,0.990,-0.252,-0.671,-0.214,0.153,100.000,64099.000,1.000
-9.072,-5.384,-9.478,-10.552,-16.252,-8.078,-18.344,-22.111,0.023,0.989,-0.253,-0.763,-0.244,0.214,100.000,64100.000,1.000
-9.616,-5.994,-11.367,-12.013,-15.656,-6.614,-17.552,-21.366,0.025,0.992,-0.250,-0.824,-0.214,0.214,100.000,64101.000,1.000
-9.848,-6.215,-12.345,-12.294,-13.811,-5.870,-15.764,-19.602,0.027,0.988,-0.251,-0.793,-0.366,0.275,100.000,64102.000,1.000
-9.571,-5.708,-11.867,-11.144,-10.729,-5.227,-12.618,-16.570,0.028,0.989,-0.254,-0.946,-0.305,0.183,100.000,64103.000,1.000
-8.686,-4.383,-9.865,-8.643,-6.661,-3.916,-8.052,-11.878,0.028,0.990,-0.254,-1.038,-0.366,0.336,100.000,64104.000,1.000
-7.420,-2.572,-6.908,-5.328,-2.214,-1.706,-2.666,-5.571,0.029,0.988,-0.253,-1.190,-0.336,0.336,100.000,64105.000,1.000
-6.120,-0.850,-3.874,-1.983,1.773,0.740,2.350,1.464,0.030,0.990,-0.255,-1.160,-0.244,0.275,100.000,64106.000,1.000
-4.986,0.316,-1.500,0.686,4.571,2.393,5.823,7.661,0.029,0.990,-0.254,-1.251,-0.305,0.183,100.000,64107.000,1.000
-3.982,0.820,-0.048,2.412,6.004,2.837,7.331,11.682,0.030,0.989,-0.250,-1.343,-0.183,0.336,100.000,64108.000,1.000
-2.906,0.933,0.788,3.531,6.577,2.628,7.500,13.389,0.030,0.991,-0.255,-1.312,-0.214,0.275,100.000,64109.000,1.000
-1.546,1.030,1.558,4.601,7.008,2.614,7.525,13.731,0.031,0.991,-0.251,-1.495,-0.214,0.153,100.000,64110.000,1.000
0.193,1.366,2.617,5.882,7.654,3.119,8.252,13.677,0.031,0.991,-0.250,-1.404,-0.092,0.275,100.000,64111.000,1.000
2.246,2.104,4.015,7.218,8.340,3.811,9.585,13.399,0.031,0.992,-0.250,-1.526,0.000,0.183,100.000,64112.000,1.000
4.321,3.203,5.515,8.184,8.466,3.968,10.496,12.271,0.031,0.992,-0.248,-1.556,0.031,0.183,100.000,64113.000,1.000
6.001,4.275,6.685,8.292,7.355,2.899,9.703,9.544,0.032,0.990,-0.250,-1.617,0.153,0.122,100.000,64114.000,1.000
7.036,4.792,7.155,7.317,4.851,0.581,6.784,5.223,0.031,0.988,-0.248,-1.556,0.122,-0.031,100.000,64115.000,1.000
7.406,4.453,6.841,5.458,1.617,-2.026,2.689,0.372,0.029,0.986,-0.250,-1.648,0.275,0.061,100.000,64116.000,1.000
7.250,3.455,6.010,3.204,-1.243,-3.559,-1.049,-3.650,0.029,0.986,-0.252,-1.678,0.214,0.000,100.000,64117.000,1.000
6.816,2.402,5.138,1.069,-2.905,-3.268,-3.537,-6.321,0.029,0.987,-0.249,-1.556,0.244,-0.031,100.000,64118.000,1.000
6.353,1.883,4.612,-0.619,-3.276,-1.491,-4.891,-8.252,0.028,0.988,-0.249,-1.556,0.275,-0.153,100.000,64119.000,1.000
6.012,2.116,4.510,-1.760,-2.879,0.749,-5.720,-10.391,0.027,0.988,-0.250,-1.526,0.366,-0.214,100.000,64120.000,1.000
5.802,2.867,4.610,-2.407,-2.380,2.479,-6.478,-13.025,0.027,0.988,-0.249,-1.373,0.305,-0.122,100.000,64121.000,1.000
5.556,3.565,4.508,-2.747,-2.182,3.253,-7.120,-15.536,0.027,0.988,-0.250,-1.465,0.244,-0.153,100.000,64122.000,1.000
4.945,3.534,3.740,-3.140,-2.396,3.146,-7.249,-17.021,0.028,0.987,-0.249,-1.465,0.214,-0.061,100.000,64123.000,1.000
3.648,2.317,2.017,-3.975,-2.958,2.445,-6.627,-16.998,0.026,0.987,-0.247,-1.312,0.153,-0.092,100.000,64124.000,1.000
1.704,0.026,-0.412,-5.250,-3.567,1.493,-5.373,-15.441,0.026,0.989,-0.249,-1.282,0.153,-0.122,100.000,64125.000,1.000
-0.330,-2.520,-2.748,-6.386,-3.625,0.796,-3.656,-12.402,0.026,0.987,-0.248,-1.251,0.244,-0.153,100.000,64126.000,1.000
-1.747,-4.217,-4.195,-6.641,-2.579,0.959,-1.373,-7.985,0.024,0.988,-0.247,-1.160,0.214,-0.122,100.000,64127.000,1.000
-2.303,-4.458,-4.521,-5.714,-0.384,2.254,1.746,-2.588,0.026,0.989,-0.246,-1.160,0.122,0.061,100.000,64128.000,1.000
-2.418,-3.525,-4.117,-4.020,2.323,4.303,5.594,3.045,0.027,0.990,-0.246,-1.099,0.031,0.031,100.000,64129.000,1.000
-2.884,-2.332,-3.771,-2.607,4.387,6.192,9.207,7.903,0.028,0.989,-0.246,-1.160,0.031,0.122,100.000,64130.000,1.000
-4.302,-1.762,-4.234,-2.544,4.740,6.977,11.194,10.975,0.026,0.988,-0.247,-1.038,-0.061,0.061,100.000,64131.000,1.000
-6.513,-2.104,-5.616,-4.025,3.194,6.315,10.877,11.881,0.025,0.988,-0.245,-1.038,0.031,0.031,100.000,64132.000,1.000
-8.686,-3.107,-7.290,-6.229,0.513,4.534,8.673,11.128,0.025,0.988,-0.243,-1.068,-0.061,0.122,100.000,64133.000,1.000
-10.109,-4.380,-8.524,-8.150,-2.323,2.203,5.448,9.532,0.024,0.988,-0.244,-1.129,-0.183,0.153,100.000,64134.000,1.000
-10.704,-5.552,-8.983,-9.254,-4.647,-0.156,1.984,7.607,0.025,0.988,-0.245,-1.007,-0.214,0.153,100.000,64135.000,1.000
-10.797,-6.296,-8.702,-9.468,-6.156,-2.175,-1.161,5.387,0.025,0.986,-0.244,-1.038,-0.244,0.244,100.000,64136.000,1.000
-10.591,-6.402,-7.823,-8.949,-6.818,-3.682,-3.641,2.697,0.025,0.987,-0.244,-1.038,-0.336,0.000,100.000,64137.000,1.000
-9.930,-5.738,-6.338,-7.854,-6.645,-4.536,-5.054,-0.303,0.027,0.988,-0.245,-0.977,-0.397,0.122,100.000,64138.000,1.000
-8.527,-4.185,-4.101,-6.215,-5.500,-4.461,-4.875,-2.937,0.028,0.987,-0.245,-0.916,-0.366,0.244,100.000,64139.000,1.000
-6.355,-1.803,-1.169,-4.095,-3.352,-3.307,-3.097,-4.604,0.027,0.986,-0.244,-0.854,-0.458,0.183,100.000,64140.000,1.000
-3.842,0.875,1.880,-1.875,-0.748,-1.657,-0.822,-5.435,0.026,0.986,-0.244,-0.946,-0.336,0.061,100.000,64141.000,1.000
-1.693,2.968,4.183,-0.196,1.317,-0.735,0.315,-6.177,0.027,0.985,-0.245,-0.946,-0.336,0.031,100.000,64142.000,1.000
-0.350,3.941,5.305,0.564,2.234,-1.251,-0.494,-7.475,0.028,0.986,-0.243,-0.793,-0.275,0.061,100.000,64143.000,1.000
0.501,4.148,5.704,0.723,2.345,-2.584,-2.582,-9.313,0.029,0.988,-0.243,-0.732,-0.244,0.061,100.000,64144.000,1.000
1.714,4.493,6.323,1.021,2.530,-3.443,-4.485,-11.115,0.028,0.988,-0.243,-0.641,-0.275,0.122,100.000,64145.000,1.000
3.815,5.542,7.729,1.956,3.338,-3.087,-5.172,-12.212,0.029,0.987,-0.245,-0.610,-0.214,0.061,100.000,64146.000,1.000
6.472,7.057,9.669,3.449,4.614,-1.783,-4.598,-12.132,0.031,0.987,-0.245,-0.580,-0.183,0.092,100.000,64147.000,1.000
8.853,8.369,11.422,5.075,5.863,-0.319,-3.269,-10.516,0.031,0.985,-0.244,-0.580,-0.092,0.031,100.000,64148.000,1.000
10.361,8.998,12.431,6.467,6.758,0.689,-1.560,-7.055,0.030,0.986,-0.246,-0.641,-0.092,0.061,100.000,64149.000,1.000
10.903,8.819,12.544,7.425,7.178,0.982,0.342,-1.870,0.029,0.987,-0.244,-0.519,-0.092,0.122,100.000,64150.000,1.000
10.631,7.902,11.827,7.788,6.998,0.567,2.223,4.130,0.030,0.989,-0.245,-0.519,-0.092,0.122,100.000,64151.000,1.000
9.622,6.365,10.344,7.408,6.113,-0.204,3.932,9.641,0.030,0.990,-0.245,-0.519,0.000,0.061,100.000,64152.000,1.000
7.847,4.340,8.163,6.292,4.630,-0.711,5.484,13.780,0.030,0.991,-0.243,-0.610,0.153,0.031,100.000,64153.000,1.000
5.443,2.030,5.526,4.718,2.943,-0.497,6.894,16.404,0.030,0.992,-0.241,-0.610,0.183,0.092,100.000,64154.000,1.000
2.933,-0.247,2.969,3.181,1.581,0.432,8.034,17.753,0.029,0.993,-0.245,-0.671,0.214,0.061,100.000,64155.000,1.000
1.163,-2.036,1.238,2.234,1.010,1.780,8.713,18.004,0.029,0.990,-0.245,-0.641,0.153,0.183,100.000,64156.000,1.000
0.881,-2.811,0.926,2.235,1.506,3.318,8.891,17.257,0.030,0.990,-0.242,-0.732,0.244,0.000,100.000,64157.000,1.000
2.154,-2.278,2.051,3.108,3.054,4.933,8.765,15.782,0.027,0.991,-0.247,-0.671,0.244,0.092,100.000,64158.000,1.000
4.230,-0.651,4.021,4.412,5.319,6.383,8.635,14.041,0.026,0.991,-0.245,-0.763,0.244,-0.031,100.000,64159.000,1.000
6.127,1.479,6.113,5.731,7.794,7.286,8.729,12.492,0.027,0.991,-0.245,-0.702,0.153,0.031,100.000,64160.000,1.000
7.265,3.487,7.868,6.897,9.972,7.410,9.075,11.281,0.028,0.990,-0.244,-0.702,0.214,0.122,100.000,64161.000,1.000
7.502,4.910,8.981,7.741,11.303,6.744,9.302,9.899,0.027,0.989,-0.245,-0.702,0.244,-0.061,100.000,64162.000,1.000
6.882,5.535,9.110,7.875,11.223,5.355,8.733,7.419,0.028,0.990,-0.247,-0.732,0.183,-0.061,100.000,64163.000,1.000
5.599,5.485,8.100,6.933,9.532,3.528,6.987,3.414,0.026,0.990,-0.248,-0.610,0.183,0.000,100.000,64164.000,1.000
4.097,5.188,6.335,5.031,6.785,2.007,4.537,-1.439,0.026,0.990,-0.247,-0.641,0.153,-0.031,100.000,64165.000,1.000
2.965,5.173,4.660,2.873,4.158,1.700,2.486,-5.736,0.025,0.991,-0.246,-0.641,0.275,0.061,100.000,64166.000,1.000
2.596,5.691,3.795,1.251,2.651,2.722,1.465,-8.341,0.028,0.990,-0.246,-0.610,0.305,0.061,100.000,64167.000,1.000
2.876,6.392,3.724,0.404,2.253,3.933,0.793,-9.282,0.029,0.992,-0.245,-0.641,0.336,0.092,100.000,64168.000,1.000
3.210,6.494,3.707,-0.032,2.054,3.956,-0.746,-9.608,0.028,0.991,-0.245,-0.671,0.305,0.092,100.000,64169.000,1.000
2.933,5.435,2.949,-0.482,1.214,2.481,-3.502,-10.226,0.027,0.993,-0.246,-0.702,0.244,0.122,100.000,64170.000,1.000
1.763,3.334,1.217,-1.051,-0.390,0.256,-6.731,-11.076,0.028,0.992,-0.243,-0.610,0.244,0.061,100.000,64171.000,1.000
-0.057,0.821,-1.113,-1.588,-2.327,-1.786,-9.381,-11.373,0.027,0.993,-0.246,-0.702,0.153,0.000,100.000,64172.000,1.000
-1.905,-1.389,-3.379,-1.806,-4.011,-3.083,-10.753,-10.197,0.029,0.994,-0.243,-0.702,0.092,-0.031,100.000,64173.000,1.000
-3.184,-2.879,-5.047,-1.471,-4.997,-3.562,-10.643,-6.905,0.028,0.993,-0.243,-0.732,0.183,-0.031,100.000,64174.000,1.000
-3.794,-3.732,-6.051,-0.687,-5.202,-3.569,-9.218,-1.561,0.028,0.993,-0.241,-0.641,0.244,0.061,100.000,64175.000,1.000
-4.097,-4.348,-6.686,0.122,-4.858,-3.512,-6.791,4.919,0.026,0.991,-0.242,-0.641,0.122,0.061,100.000,64176.000,1.000
-4.417,-4.935,-7.150,0.615,-4.206,-3.413,-3.604,11.312,0.026,0.990,-0.242,-0.702,0.122,0.153,100.000,64177.000,1.000
-4.723,-5.331,-7.335,0.788,-3.365,-2.985,0.125,16.600,0.025,0.989,-0.241,-0.641,0.092,0.061,100.000,64178.000,1.000
-4.750,-5.287,-7.067,0.819,-2.473,-2.104,3.863,19.861,0.026,0.990,-0.244,-0.641,0.031,0.031,100.000,64179.000,1.000
-4.315,-4.757,-6.383,0.755,-1.736,-0.961,6.712,20.244,0.026,0.987,-0.240,-0.580,0.061,0.000,100.000,64180.000,1.000
-3.505,-3.895,-5.552,0.450,-1.273,0.149,7.905,17.563,0.027,0.986,-0.242,-0.519,0.031,-0.031,100.000,64181.000,1.000
-2.552,-2.883,-4.784,-0.197,-0.971,1.065,7.454,12.790,0.027,0.985,-0.240,-0.458,0.092,-0.061,100.000,64182.000,1.000
-1.594,-1.763,-3.986,-1.007,-0.512,1.941,6.269,7.624,0.028,0.985,-0.241,-0.336,-0.031,0.061,100.000,64183.000,1.000
-0.656,-0.508,-2.921,-1.628,0.329,3.083,5.338,3.299,0.030,0.986,-0.241,-0.244,0.000,-0.061,100.000,64184.000,1.000
0.150,0.723,-1.649,-1.930,1.304,4.416,4.713,-0.218,0.028,0.987,-0.240,-0.214,0.061,0.000,100.000,64185.000,1.000
0.522,1.524,-0.659,-2.174,1.738,5.397,3.608,-3.771,0.028,0.987,-0.243,-0.244,0.153,0.092,100.000,64186.000,1.000
0.134,1.481,-0.502,-2.770,1.045,5.540,1.339,-7.972,0.029,0.989,-0.242,-0.061,0.092,0.061,100.000,64187.000,1.000
-1.034,0.553,-1.289,-3.838,-0.782,4.791,-1.997,-12.651,0.030,0.990,-0.243,-0.122,0.122,0.275,100.000,64188.000,1.000
-2.507,-0.728,-2.503,-4.991,-3.084,3.574,-5.453,-16.922,0.030,0.991,-0.246,-0.122,0.092,0.214,100.000,64189.000,1.000
-3.538,-1.490,-3.307,-5.558,-4.885,2.603,-7.695,-19.571,0.028,0.989,-0.243,-0.031,0.183,0.153,100.000,64190.000,1.000
-3.660,-1.187,-3.113,-5.088,-5.528,2.296,-7.935,-19.689,0.028,0.990,-0.239,0.000,0.183,0.214,100.000,64191.000,1.000
-2.995,-0.035,-1.948,-3.634,-5.036,2.293,-6.534,-17.218,0.027,0.990,-0.243,-0.031,0.214,0.275,100.000,64192.000,1.000
-1.957,1.264,-0.325,-1.581,-3.865,1.898,-4.553,-12.933,0.028,0.987,-0.242,-0.031,0.183,0.244,100.000,64193.000,1.000
-0.890,2.074,1.124,0.649,-2.470,0.795,-2.890,-7.959,0.028,0.986,-0.242,0.183,0.183,0.153,100.000,64194.000,1.000
-0.070,2.076,1.901,2.697,-1.176,-0.874,-1.922,-3.249,0.028,0.986,-0.242,0.183,0.183,0.214,100.000,64195.000,1.000
0.286,1.305,1.757,4.255,-0.197,-2.746,-1.476,0.816,0.030,0.985,-0.244,0.336,0.092,0.153,100.000,64196.000,1.000
0.229,0.158,0.820,5.167,0.444,-4.427,-1.035,4.402,0.028,0.988,-0.245,0.366,0.122,0.122,100.000,64197.000,1.000
0.167,-0.790,-0.409,5.511,0.883,-5.711,-0.290,7.722,0.031,0.987,-0.245,0.488,0.031,0.092,100.000,64198.000,1.000
0.557,-1.178,-1.380,5.492,1.236,-6.619,0.548,10.623,0.028,0.987,-0.245,0.519,-0.031,0.031,100.000,64199.000,1.000
1.594,-0.971,-1.752,5.372,1.578,-7.118,1.199,12.824,0.029,0.986,-0.246,0.702,-0.031,-0.092,100.000,64200.000,1.000
3.256,-0.217,-1.395,5.442,2.025,-6.963,1.775,14.241,0.026,0.985,-0.248,0.732,-0.061,-0.061,100.000,64201.000,1.000
5.264,0.953,-0.455,5.745,2.588,-5.907,2.545,14.728,0.028,0.986,-0.246,0.854,-0.122,-0.092,100.000,64202.000,1.000
6.967,2.146,0.606,5.898,3.047,-3.986,3.472,13.852,0.028,0.988,-0.246,0.885,0.000,0.000,100.000,64203.000,1.000
7.658,2.848,1.263,5.396,3.074,-1.650,4.117,11.235,0.027,0.989,-0.247,0.824,-0.092,-0.031,100.000,64204.000,1.000
7.099,2.759,1.230,4.040,2.446,0.350,3.941,7.019,0.028,0.988,-0.247,0.977,-0.122,-0.122,100.000,64205.000,1.000
5.668,1.995,0.628,2.109,1.253,1.490,2.851,2.023,0.027,0.989,-0.249,0.824,-0.153,-0.122,100.000,64206.000,1.000
4.054,1.004,-0.125,0.160,-0.082,1.916,1.401,-2.627,0.028,0.989,-0.248,0.793,-0.275,-0.153,100.000,64207.000,1.000
2.840,0.252,-0.661,-1.386,-1.179,2.058,0.230,-6.148,0.026,0.989,-0.248,0.824,-0.275,-0.183,100.000,64208.000,1.000
2.186,-0.108,-0.982,-2.523,-2.083,1.914,-0.616,-8.372,0.027,0.988,-0.248,0.702,-0.336,-0.183,100.000,64209.000,1.000
1.747,-0.358,-1.451,-3.602,-3.208,1.062,-1.726,-9.694,0.027,0.990,-0.248,0.641,-0.366,-0.214,100.000,64210.000,1.000
0.926,-1.020,-2.524,-5.024,-4.951,-0.696,-3.806,-10.901,0.028,0.990,-0.250,0.763,-0.336,-0.214,100.000,64211.000,1.000
-0.624,-2.407,-4.359,-6.905,-7.359,-2.944,-7.050,-12.641,0.027,0.991,-0.250,0.671,-0.305,-0.153,100.000,64212.000,1.000
-2.626,-4.239,-6.519,-8.865,-9.952,-4.807,-10.698,-14.773,0.026,0.991,-0.250,0.702,-0.275,-0.214,100.000,64213.000,1.000
-4.266,-5.739,-8.053,-10.104,-11.793,-5.436,-13.252,-16.346,0.025,0.990,-0.247,0.549,-0.275,-0.244,100.000,64214.000,1.000
-4.729,-6.192,-8.058,-9.852,-11.978,-4.596,-13.461,-16.284,0.026,0.990,-0.251,0.458,-0.183,-0.275,100.000,64215.000,1.000
-3.786,-5.454,-6.334,-7.937,-10.253,-2.883,-11.220,-14.144,0.026,0.990,-0.250,0.397,-0.214,-0.336,100.000,64216.000,1.000
-2.051,-4.056,-3.636,-5.059,-7.253,-1.279,-7.523,-10.352,0.026,0.991,-0.251,0.427,-0.305,-0.305,100.000,64217.000,1.000
-0.786,-2.957,-1.350,-2.516,-4.177,-0.494,-3.723,-5.880,0.025,0.992,-0.250,0.275,-0.336,-0.305,100.000,64218.000,1.000
-1.230,-2.994,-0.706,-1.485,-2.082,-0.618,-0.720,-1.653,0.027,0.991,-0.250,0.122,-0.305,-0.305,100.000,64219.000,1.000
-3.782,-4.358,-2.041,-2.321,-1.350,-1.287,1.323,1.804,0.025,0.990,-0.251,0.061,-0.336,-0.427,100.000,64220.000,1.000
-7.702,-6.570,-4.700,-4.427,-1.727,-2.116,2.578,4.307,0.025,0.991,-0.250,-0.061,-0.427,-0.336,100.000,64221.000,1.000
-11.589,-8.928,-7.603,-6.727,-2.737,-2.936,3.089,5.811,0.026,0.992,-0.250,-0.244,-0.427,-0.214,100.000,64222.000,1.000
-14.199,-10.857,-9.884,-8.335,-3.931,-3.705,2.885,6.403,0.027,0.991,-0.252,-0.122,-0.427,-0.305,100.000,64223.000,1.000
-14.901,-11.857,-11.024,-8.805,-4.810,-4.261,2.373,6.476,0.026,0.992,-0.250,-0.305,-0.397,-0.183,100.000,64224.000,1.000
-13.628,-11.446,-10.679,-8.021,-4.795,-4.200,2.293,6.663,0.026,0.991,-0.250,-0.427,-0.336,-0.122,100.000,64225.000,1.000
-10.654,-9.355,-8.688,-6.057,-3.452,-3.079,3.205,7.362,0.026,0.990,-0.252,-0.610,-0.427,-0.031,100.000,64226.000,1.000
-6.482,-5.694,-5.184,-3.114,-0.723,-0.703,5.146,8.410,0.025,0.990,-0.252,-0.702,-0.488,0.000,100.000,64227.000,1.000
-1.806,-0.975,-0.640,0.490,3.002,2.703,7.725,9.278,0.025,0.991,-0.250,-0.763,-0.397,0.031,100.000,64228.000,1.000
2.591,3.916,4.136,4.215,6.813,6.319,10.141,9.352,0.026,0.990,-0.250,-0.732,-0.305,-0.031,100.000,64229.000,1.000
6.030,7.840,8.099,7.233,9.373,8.796,11.091,7.999,0.027,0.990,-0.253,-0.732,-0.366,-0.031,100.000,64230.000,1.000
8.135,9.853,10.384,8.726,9.553,8.939,9.310,4.840,0.027,0.991,-0.257,-0.793,-0.336,0.031,100.000,64231.000,1.000
8.946,9.791,10.847,8.486,7.272,6.605,4.690,0.218,0.029,0.991,-0.254,-0.824,-0.275,0.061,100.000,64232.000,1.000
8.812,8.360,10.110,7.100,3.655,2.910,-1.268,-4.795,0.029,0.993,-0.255,-0.885,-0.214,0.122,100.000,64233.000,1.000
8.157,6.690,9.076,5.526,0.349,-0.454,-6.261,-8.925,0.028,0.995,-0.253,-0.946,-0.214,0.000,100.000,64234.000,1.000
7.426,5.786,8.510,4.604,-1.270,-2.171,-8.572,-11.132,0.027,0.992,-0.250,-1.129,-0.092,0.122,100.000,64235.000,1.000
7.125,6.130,8.887,4.856,-0.571,-1.906,-7.930,-10.849,0.027,0.990,-0.248,-1.221,-0.122,0.244,100.000,64236.000,1.000
7.569,7.430,10.195,6.306,2.102,-0.287,-5.336,-8.219,0.027,0.987,-0.249,-1.251,-0.061,0.061,100.000,64237.000,1.000
8.470,8.716,11.717,8.292,5.484,1.557,-2.317,-4.207,0.025,0.987,-0.250,-1.404,-0.061,0.000,100.000,64238.000,1.000
8.912,8.864,12.229,9.666,7.956,2.563,-0.207,-0.249,0.025,0.987,-0.253,-1.282,-0.061,-0.092,100.000,64239.000,1.000
7.914,7.285,10.752,9.475,8.452,2.268,0.453,2.494,0.028,0.989,-0.249,-1.221,-0.092,-0.031,100.000,64240.000,1.000
5.122,4.277,7.282,7.594,7.052,1.006,0.161,3.773,0.030,0.991,-0.249,-1.282,0.061,-0.092,100.000,64241.000,1.000
1.113,0.759,2.797,4.715,4.741,-0.503,-0.073,4.257,0.028,0.990,-0.247,-1.404,0.153,0.061,100.000,64242.000,1.000
-2.855,-2.282,-1.344,1.883,2.672,-1.706,0.415,4.954,0.027,0.985,-0.247,-1.526,0.183,-0.092,100.000,64243.000,1.000
-5.477,-4.227,-4.102,-0.037,1.557,-2.363,1.620,6.624,0.025,0.979,-0.248,-1.404,0.305,-0.061,100.000,64244.000,1.000
-6.089,-4.971,-5.173,-0.720,1.466,-2.443,3.240,9.479,0.024,0.978,-0.251,-1.343,0.275,0.214,100.000,64245.000,1.000
-4.931,-4.713,-4.916,-0.426,2.029,-1.970,5.066,13.039,0.026,0.978,-0.251,-1.129,0.305,0.061,100.000,64246.000,1.000
-2.838,-3.706,-3.954,0.259,2.781,-0.931,6.837,16.080,0.026,0.982,-0.254,-0.793,0.275,0.122,100.000,64247.000,1.000
-0.720,-2.353,-2.914,0.696,3.253,0.495,7.856,17.106,0.026,0.987,-0.254,-0.610,0.366,0.244,100.000,64248.000,1.000
0.776,-1.333,-2.351,0.406,2.981,1.626,7.205,15.334,0.026,0.989,-0.252,-0.549,0.336,0.244,100.000,64249.000,1.000
1.330,-1.306,-2.587,-0.741,1.718,1.629,4.591,11.265,0.027,0.992,-0.251,-0.580,0.397,0.275,100.000,64250.000,1.000
0.872,-2.447,-3.588,-2.534,-0.428,0.212,0.718,6.112,0.027,0.990,-0.250,-0.671,0.458,0.305,100.000,64251.000,1.000
-0.398,-4.297,-5.046,-4.645,-3.119,-2.250,-3.305,0.817,0.026,0.992,-0.250,-0.610,0.427,0.397,100.000,64252.000,1.000
-1.961,-6.052,-6.510,-6.766,-5.943,-5.105,-6.672,-4.185,0.027,0.993,-0.253,-0.549,0.397,0.366,100.000,64253.000,1.000
-3.129,-7.002,-7.483,-8.542,-8.418,-7.569,-8.949,-8.560,0.025,0.997,-0.251,-0.580,0.458,0.244,100.000,64254.000,1.000
-3.383,-6.858,-7.586,-9.559,-10.042,-8.753,-9.862,-11.853,0.025,0.999,-0.248,-0.671,0.427,0.214,100.000,64255.000,1.000
-2.670,-5.814,-6.756,-9.514,-10.462,-8.135,-9.351,-13.663,0.024,1.000,-0.244,-0.885,0.549,0.000,100.000,64256.000,1.000
-1.427,-4.360,-5.276,-8.385,-9.637,-6.084,-7.795,-13.903,0.027,1.001,-0.244,-1.038,0.366,-0.061,100.000,64257.000,1.000
-0.274,-2.946,-3.584,-6.456,-7.837,-3.628,-5.972,-12.971,0.027,1.000,-0.246,-1.251,0.305,0.000,100.000,64258.000,1.000
0.439,-1.710,-1.968,-4.173,-5.477,-1.606,-4.597,-11.656,0.028,0.999,-0.247,-1.312,0.305,-0.183,100.000,64259.000,1.000
0.858,-0.458,-0.374,-1.925,-2.866,-0.081,-3.781,-10.661,0.028,0.997,-0.247,-1.343,0.458,-0.214,100.000,64260.000,1.000
1.329,1.018,1.381,0.029,-0.222,1.340,-3.041,-10.104,0.028,0.996,-0.250,-1.434,0.397,-0.183,100.000,64261.000,1.000
1.927,2.556,3.200,1.435,2.077,2.741,-1.920,-9.596,0.030,0.996,-0.247,-1.556,0.458,-0.214,100.000,64262.000,1.000
2.448,3.770,4.661,2.037,3.500,3.713,-0.546,-8.737,0.028,0.993,-0.245,-1.648,0.397,-0.305,100.000,64263.000,1.000
2.693,4.476,5.346,1.711,3.669,3.832,0.401,-7.481,0.028,0.995,-0.245,-1.648,0.397,-0.153,100.000,64264.000,1.000
2.477,4.719,5.004,0.470,2.557,3.048,0.295,-6.132,0.025,0.991,-0.244,-1.678,0.366,-0.092,100.000,64265.000,1.000
1.574,4.527,3.557,-1.514,0.556,1.807,-0.746,-4.914,0.026,0.992,-0.242,-1.648,0.366,0.000,100.000,64266.000,1.000
-0.080,3.898,1.245,-3.764,-1.548,0.928,-1.831,-3.564,0.025,0.993,-0.242,-1.648,0.366,0.092,100.000,64267.000,1.000
-2.273,2.900,-1.332,-5.551,-2.860,1.167,-2.018,-1.558,0.025,0.990,-0.241,-1.709,0.366,0.061,100.000,64268.000,1.000
-4.641,1.725,-3.454,-6.243,-2.836,2.593,-0.996,1.265,0.024,0.991,-0.238,-1.617,0.366,0.092,100.000,64269.000,1.000
-6.786,0.663,-4.634,-5.683,-1.575,4.390,0.860,4.389,0.024,0.991,-0.238,-1.587,0.244,0.031,100.000,64270.000,1.000
-8.322,-0.032,-4.829,-4.252,0.305,5.485,2.933,6.935,0.024,0.990,-0.239,-1.617,0.153,0.153,100.000,64271.000,1.000
-9.004,-0.268,-4.374,-2.616,2.050,5.367,4.707,8.264,0.023,0.987,-0.237,-1.709,0.061,0.397,100.000,64272.000,1.000
-8.836,-0.137,-3.698,-1.373,3.125,4.274,5.880,8.360,0.023,0.989,-0.239,-1.709,-0.061,0.366,100.000,64273.000,1.000
-7.977,0.183,-3.058,-0.825,3.376,2.861,6.341,7.685,0.023,0.986,-0.236,-1.617,-0.153,0.275,100.000,64274.000,1.000
-6.651,0.468,-2.533,-0.971,2.925,1.745,6.028,6.681,0.021,0.986,-0.237,-1.465,-0.153,0.336,100.000,64275.000,1.000
-5.159,0.519,-2.149,-1.619,1.982,1.238,4.936,5.447,0.022,0.984,-0.236,-1.373,-0.214,0.275,100.000,64276.000,1.000
-3.808,0.310,-1.864,-2.447,0.796,1.384,3.336,3.844,0.024,0.981,-0.236,-1.373,-0.336,0.336,100.000,64277.000,1.000
-2.810,0.016,-1.543,-3.113,-0.379,1.912,1.650,1.691,0.024,0.978,-0.237,-1.190,-0.427,0.244,100.000,64278.000,1.000
-2.288,-0.169,-1.083,-3.444,-1.432,2.108,-0.068,-1.228,0.025,0.980,-0.238,-1.038,-0.275,0.275,100.000,64279.000,1.000
-2.200,-0.148,-0.488,-3.466,-2.406,1.227,-2.192,-5.010,0.026,0.976,-0.240,-0.885,-0.397,0.244,100.000,64280.000,1.000
-2.199,0.091,0.237,-3.214,-3.287,-0.831,-4.938,-9.252,0.027,0.977,-0.238,-0.793,-0.305,0.183,100.000,64281.000,1.000
-1.709,0.562,1.200,-2.562,-3.855,-3.401,-7.908,-12.957,0.028,0.977,-0.240,-0.549,-0.366,0.244,100.000,64282.000,1.000
-0.301,1.332,2.560,-1.282,-3.785,-5.483,-10.211,-15.027,0.030,0.977,-0.240,-0.336,-0.305,0.275,100.000,64283.000,1.000
1.817,2.310,4.241,0.615,-2.978,-6.288,-11.080,-14.985,0.031,0.976,-0.239,0.031,-0.275,0.244,100.000,64284.000,1.000
3.646,2.894,5.606,2.570,-1.884,-5.720,-10.513,-13.290,0.032,0.974,-0.243,0.183,-0.031,0.244,100.000,64285.000,1.000
4.029,2.224,5.739,3.739,-1.288,-4.422,-9.166,-10.826,0.031,0.975,-0.245,0.519,-0.031,0.183,100.000,64286.000,1.000
2.694,0.060,4.318,3.762,-1.557,-3.141,-7.530,-8.054,0.032,0.975,-0.243,0.732,0.000,0.214,100.000,64287.000,1.000
0.552,-2.853,2.046,3.088,-2.230,-2.014,-5.445,-4.830,0.034,0.978,-0.245,1.038,0.153,0.275,100.000,64288.000,1.000
-1.055,-5.333,0.104,2.527,-2.403,-0.569,-2.379,-0.925,0.033,0.979,-0.246,1.221,0.305,0.275,100.000,64289.000,1.000
-1.204,-6.415,-0.581,2.718,-1.372,1.585,1.894,3.545,0.033,0.981,-0.246,1.373,0.366,0.122,100.000,64290.000,1.000
0.220,-5.654,0.294,3.877,0.944,4.150,6.744,8.035,0.031,0.983,-0.248,1.343,0.397,0.336,100.000,64291.000,1.000
2.504,-3.317,2.304,5.652,3.937,6.270,10.848,11.807,0.030,0.985,-0.245,1.434,0.549,0.305,100.000,64292.000,1.000
4.446,-0.373,4.460,7.229,6.652,7.198,13.123,14.432,0.030,0.986,-0.247,1.404,0.549,0.153,100.000,64293.000,1.000
5.108,2.059,5.788,7.855,8.370,6.900,13.493,16.032,0.029,0.990,-0.246,1.495,0.671,0.153,100.000,64294.000,1.000
4.452,3.430,5.948,7.383,8.955,6.072,12.782,17.002,0.028,0.992,-0.249,1.556,0.641,0.122,100.000,64295.000,1.000
3.173,3.842,5.231,6.231,8.668,5.473,11.936,17.548,0.030,0.994,-0.248,1.465,0.671,-0.092,100.000,64296.000,1.000
1.955,3.558,4.035,4.883,7.686,5.201,11.260,17.471,0.027,0.996,-0.248,1.404,0.702,-0.061,100.000,64297.000,1.000
0.983,2.659,2.493,3.520,5.909,4.692,10.344,16.310,0.027,0.998,-0.246,1.190,0.793,-0.122,100.000,64298.000,1.000
0.122,1.191,0.597,2.110,3.284,3.472,8.722,13.787,0.028,0.998,-0.247,0.916,0.763,-0.183,100.000,64299.000,1.000
-0.683,-0.495,-1.452,0.696,0.229,1.760,6.450,10.105,0.027,1.001,-0.247,0.854,0.793,-0.214,100.000,64300.000,1.000
-1.220,-1.724,-3.184,-0.511,-2.428,0.206,3.938,5.784,0.026,1.001,-0.249,0.732,0.732,-0.183,100.000,64301.000,1.000
-1.115,-1.807,-4.059,-1.240,-3.901,-0.761,1.507,1.367,0.027,1.002,-0.249,0.519,0.793,-0.153,100.000,64302.000,1.000
-0.123,-0.503,-3.716,-1.265,-3.819,-1.142,-0.641,-2.630,0.024,1.003,-0.247,0.305,0.793,-0.183,100.000,64303.000,1.000
1.573,1.707,-2.201,-0.532,-2.322,-1.124,-2.225,-5.711,0.025,1.001,-0.247,0.000,0.793,-0.305,100.000,64304.000,1.000
3.396,3.915,0.007,0.769,0.065,-0.842,-2.927,-7.516,0.024,0.998,-0.250,-0.305,0.641,-0.275,100.000,64305.000,1.000
4.642,5.330,2.139,2.164,2.581,-0.476,-2.746,-7.995,0.024,0.995,-0.250,-0.519,0.580,-0.214,100.000,64306.000,1.000
4.730,5.486,3.340,2.974,4.356,-0.510,-2.254,-7.526,0.024,0.993,-0.252,-0.610,0.488,-0.275,100.000,64307.000,1.000
3.507,4.266,3.035,2.732,4.771,-1.538,-2.173,-6.688,0.025,0.993,-0.255,-0.519,0.336,-0.061,100.000,64308.000,1.000
1.449,2.012,1.331,1.604,3.857,-3.632,-2.575,-5.762,0.024,0.993,-0.255,-0.610,0.397,0.000,100.000,64309.000,1.000
-0.629,-0.532,-1.019,0.243,2.236,-6.046,-2.729,-4.528,0.027,0.996,-0.253,-0.702,0.427,-0.031,100.000,64310.000,1.000
-2.161,-2.607,-3.104,-0.792,0.595,-7.692,-1.933,-2.710,0.028,0.998,-0.251,-0.793,0.397,0.031,100.000,64311.000,1.000
-3.036,-3.809,-4.332,-1.404,-0.764,-7.972,-0.483,-0.583,0.028,0.996,-0.249,-0.977,0.336,0.275,100.000,64312.000,1.000
-3.373,-4.100,-4.518,-1.825,-1.876,-7.089,0.440,1.046,0.027,0.993,-0.247,-1.068,0.305,0.366,100.000,64313.000,1.000
-3.323,-3.640,-3.796,-2.271,-2.797,-5.677,-0.191,1.477,0.026,0.989,-0.249,-1.099,0.275,0.458,100.000,64314.000,1.000
-3.046,-2.716,-2.578,-2.784,-3.491,-4.284,-2.392,0.597,0.027,0.989,-0.248,-1.129,0.275,0.488,100.000,64315.000,1.000
-2.658,-1.618,-1.393,-3.227,-3.854,-3.026,-5.042,-1.045,0.027,0.989,-0.249,-1.099,0.183,0.610,100.000,64316.000,1.000
-2.232,-0.542,-0.631,-3.395,-3.825,-1.652,-6.548,-2.501,0.025,0.991,-0.245,-1.068,0.183,0.519,100.000,64317.000,1.000
-1.944,0.293,-0.508,-3.240,-3.587,-0.037,-6.025,-2.968,0.024,0.988,-0.246,-1.221,0.092,0.366,100.000,64318.000,1.000
-1.951,0.654,-1.019,-2.870,-3.482,1.498,-3.900,-2.141,0.026,0.986,-0.246,-1.282,0.122,0.244,100.000,64319.000,1.000
-2.032,0.522,-1.796,-2.300,-3.653,2.388,-1.396,-0.239,0.028,0.985,-0.246,-1.312,0.031,0.183,100.000,64320.000,1.000
-1.667,0.126,-2.248,-1.431,-3.929,2.177,0.373,2.082,0.028,0.983,-0.244,-1.221,0.122,0.153,100.000,64321.000,1.000
-0.470,-0.176,-1.859,-0.186,-3.914,0.891,1.044,4.087,0.028,0.981,-0.245,-1.160,0.092,0.122,100.000,64322.000,1.000
1.610,0.069,-0.338,1.502,-3.077,-0.802,1.109,5.429,0.027,0.980,-0.247,-1.099,0.061,-0.092,100.000,64323.000,1.000
4.254,1.198,2.193,3.553,-1.135,-2.061,1.250,6.025,0.028,0.979,-0.251,-1.007,0.092,0.000,100.000,64324.000,1.000
6.743,3.078,5.063,5.490,1.555,-2.496,1.511,5.638,0.030,0.979,-0.250,-0.824,0.153,-0.214,100.000,64325.000,1.000
8.297,5.190,7.434,6.683,4.283,-2.131,1.462,4.069,0.030,0.982,-0.251,-0.793,0.397,-0.092,100.000,64326.000,1.000
8.600,7.051,8.888,6.907,6.616,-1.057,1.006,1.641,0.032,0.984,-0.251,-0.702,0.427,-0.092,100.000,64327.000,1.000
7.920,8.406,9.540,6.494,8.515,0.544,0.568,-0.884,0.030,0.983,-0.251,-0.671,0.549,-0.092,100.000,64328.000,1.000
6.830,9.150,9.783,6.009,9.999,2.244,0.479,-2.814,0.030,0.984,-0.252,-0.549,0.549,-0.061,100.000,64329.000,1.000
5.905,9.215,9.962,5.863,10.900,3.431,0.490,-3.850,0.030,0.986,-0.250,-0.549,0.641,0.000,100.000,64330.000,1.000
5.530,8.568,10.179,6.086,10.961,3.630,0.066,-4.118,0.029,0.987,-0.250,-0.366,0.641,0.122,100.000,64331.000,1.000
5.854,7.319,10.346,6.444,10.139,2.884,-0.852,-3.954,0.028,0.990,-0.249,-0.427,0.610,0.000,100.000,64332.000,1.000
6.850,5.797,10.392,6.743,8.770,1.741,-1.607,-3.587,0.027,0.993,-0.249,-0.519,0.671,0.000,100.000,64333.000,1.000
8.298,4.428,10.304,6.932,7.341,0.775,-1.411,-3.007,0.024,0.991,-0.248,-0.458,0.580,0.244,100.000,64334.000,1.000
9.649,3.418,9.930,6.904,6.056,0.096,-0.123,-2.159,0.025,0.992,-0.246,-0.519,0.549,0.366,100.000,64335.000,1.000
10.104,2.601,8.937,6.417,4.725,-0.541,1.585,-1.172,0.025,0.991,-0.244,-0.610,0.488,0.427,100.000,64336.000,1.000
9.135,1.749,7.241,5.451,3.262,-1.060,2.977,-0.146,0.026,0.994,-0.246,-0.671,0.580,0.488,100.000,64337.000,1.000
6.965,0.950,5.320,4.487,2.118,-0.782,4.068,1.116,0.025,0.995,-0.245,-0.610,0.549,0.519,100.000,64338.000,1.000
4.431,0.522,3.858,4.176,1.914,0.795,5.342,2.777,0.025,0.995,-0.243,-0.763,0.641,0.458,100.000,64339.000,1.000
2.412,0.660,3.189,4.784,2.743,3.151,6.800,4.601,0.025,0.995,-0.245,-0.946,0.580,0.488,100.000,64340.000,1.000
1.354,1.269,3.161,5.970,4.034,5.101,7.839,6.194,0.026,0.992,-0.247,-0.946,0.610,0.519,100.000,64341.000,1.000
1.189,2.052,3.360,6.999,5.003,5.864,7.961,7.369,0.026,0.990,-0.248,-0.885,0.519,0.488,100.000,64342.000,1.000
1.563,2.707,3.399,7.178,5.176,5.593,7.252,8.219,0.025,0.991,-0.247,-0.854,0.458,0.427,100.000,64343.000,1.000
2.048,3.076,3.055,6.211,4.552,5.004,6.141,8.832,0.027,0.990,-0.247,-0.977,0.458,0.519,100.000,64344.000,1.000
2.183,3.069,2.190,4.221,3.330,4.620,4.835,8.888,0.029,0.992,-0.248,-0.977,0.427,0.427,100.000,64345.000,1.000
1.542,2.533,0.716,1.620,1.679,4.387,3.237,7.882,0.028,0.991,-0.247,-1.007,0.488,0.641,100.000,64346.000,1.000
-0.100,1.336,-1.329,-1.090,-0.209,3.942,1.303,5.750,0.028,0.991,-0.249,-0.946,0.549,0.549,100.000,64347.000,1.000
-2.666,-0.490,-3.761,-3.545,-2.094,3.020,-0.828,2.873,0.027,0.990,-0.250,-0.977,0.580,0.458,100.000,64348.000,1.000
-5.685,-2.632,-6.174,-5.453,-3.623,1.745,-2.813,-0.219,0.029,0.990,-0.250,-0.946,0.549,0.427,100.000,64349.000,1.000
-8.215,-4.468,-7.852,-6.376,-4.224,0.730,-3.967,-2.790,0.028,0.989,-0.250,-0.885,0.549,0.366,100.000,64350.000,1.000
-9.200,-5.379,-8.089,-5.942,-3.380,0.652,-3.575,-4.076,0.027,0.989,-0.247,-1.007,0.519,0.458,100.000,64351.000,1.000
-8.280,-5.271,-6.824,-4.368,-1.236,1.490,-1.730,-3.988,0.028,0.991,-0.246,-0.946,0.549,0.214,100.000,64352.000,1.000
-6.186,-4.691,-4.879,-2.596,1.137,2.309,0.328,-3.409,0.028,0.989,-0.248,-1.038,0.427,0.214,100.000,64353.000,1.000
-4.200,-4.389,-3.479,-1.796,2.289,1.966,1.029,-3.486,0.027,0.987,-0.248,-0.916,0.458,0.183,100.000,64354.000,1.000
-3.212,-4.725,-3.403,-2.539,1.435,0.119,-0.232,-4.609,0.023,0.985,-0.249,-0.946,0.427,0.183,100.000,64355.000,1.000
-3.214,-5.455,-4.424,-4.248,-0.975,-2.486,-2.710,-6.196,0.024,0.988,-0.244,-0.946,0.458,0.366,100.000,64356.000,1.000
-3.483,-6.018,-5.527,-5.550,-3.730,-4.757,-5.181,-7.360,0.026,0.987,-0.244,-0.916,0.366,0.214,100.000,64357.000,1.000
-3.176,-5.973,-5.724,-5.345,-5.817,-6.098,-6.873,-7.604,0.026,0.986,-0.247,-0.977,0.336,0.092,100.000,64358.000,1.000
-1.858,-5.166,-4.692,-3.566,-6.908,-6.529,-7.633,-6.938,0.026,0.986,-0.246,-0.946,0.305,0.122,100.000,64359.000,1.000
0.246,-3.710,-2.835,-1.094,-7.218,-6.249,-7.634,-5.624,0.026,0.988,-0.248,-0.885,0.214,0.061,100.000,64360.000,1.000
2.346,-1.969,-0.967,0.872,-7.153,-5.302,-7.046,-3.930,0.027,0.987,-0.246,-0.854,0.153,-0.122,100.000,64361.000,1.000
3.546,-0.502,0.097,1.474,-7.098,-3.703,-5.961,-2.071,0.027,0.987,-0.245,-0.854,0.183,-0.153,100.000,64362.000,1.000
3.306,0.106,-0.174,0.454,-7.384,-1.764,-4.550,-0.304,0.024,0.986,-0.244,-0.793,0.122,-0.031,100.000,64363.000,1.000
1.595,-0.483,-1.876,-1.963,-8.234,-0.118,-3.120,1.124,0.025,0.985,-0.244,-0.854,0.122,0.000,100.000,64364.000,1.000
-1.120,-2.109,-4.592,-5.231,-9.584,0.641,-1.948,2.120,0.026,0.987,-0.245,-0.793,0.061,0.000,100.000,64365.000,1.000
-3.976,-4.131,-7.498,-8.580,-11.035,0.346,-1.176,2.668,0.026,0.991,-0.245,-0.854,-0.031,0.000,100.000,64366.000,1.000
-6.053,-5.737,-9.715,-11.205,-12.030,-0.629,-0.832,2.667,0.023,0.990,-0.248,-0.824,0.000,-0.031,100.000,64367.000,1.000
-6.844,-6.268,-10.666,-12.546,-12.073,-1.575,-0.794,2.042,0.026,0.989,-0.248,-0.793,-0.122,0.000,100.000,64368.000,1.000
-6.494,-5.500,-10.280,-12.525,-10.957,-1.798,-0.839,0.889,0.027,0.990,-0.246,-0.763,-0.183,0.031,100.000,64369.000,1.000
-5.657,-3.803,-8.984,-11.566,-8.928,-0.978,-0.888,-0.601,0.028,0.989,-0.245,-0.763,-0.061,-0.061,100.000,64370.000,1.000
-5.050,-1.933,-7.428,-10.303,-6.557,0.650,-1.050,-2.245,0.027,0.991,-0.244,-0.763,-0.183,-0.031,100.000,64371.000,1.000
-5.101,-0.574,-6.161,-9.245,-4.388,2.464,-1.377,-3.874,0.027,0.989,-0.245,-0.763,-0.214,-0.031,100.000,64372.000,1.000
-5.878,-0.042,-5.472,-8.623,-2.718,3.803,-1.763,-5.358,0.026,0.989,-0.245,-0.824,-0.183,-0.061,100.000,64373.000,1.000
-7.028,-0.224,-5.268,-8.270,-1.485,4.299,-1.934,-6.437,0.029,0.990,-0.244,-0.916,-0.122,0.153,100.000,64374.000,1.000
-7.773,-0.682,-5.027,-7.550,-0.273,3.985,-1.487,-6.604,0.029,0.993,-0.243,-0.885,-0.122,0.000,100.000,64375.000,1.000
-7.388,-1.068,-4.203,-5.790,1.283,2.995,-0.295,-5.532,0.027,0.993,-0.241,-0.946,-0.092,-0.031,100.000,64376.000,1.000
-5.862,-1.531,-2.827,-3.036,2.968,1.271,1.120,-3.588,0.025,0.993,-0.243,-1.007,-0.061,0.000,100.000,64377.000,1.000
-3.869,-2.476,-1.517,-0.160,4.064,-1.213,1.906,-1.641,0.027,0.992,-0.241,-1.007,-0.122,-0.061,100.000,64378.000,1.000
-2.149,-4.023,-0.911,1.803,3.952,-4.109,1.500,-0.517,0.026,0.992,-0.244,-1.007,0.000,-0.092,100.000,64379.000,1.000
-1.132,-5.862,-1.233,2.334,2.529,-6.767,0.001,-0.550,0.027,0.993,-0.245,-1.099,-0.031,-0.061,100.000,64380.000,1.000
-0.864,-7.442,-2.196,1.665,0.239,-8.558,-1.884,-1.393,0.027,0.992,-0.246,-1.129,0.092,0.031,100.000,64381.000,1.000
-1.019,-8.207,-3.186,0.548,-2.198,-9.046,-3.256,-2.325,0.027,0.992,-0.244,-1.190,0.000,0.031,100.000,64382.000,1.000
-1.114,-7.924,-3.678,-0.305,-4.201,-8.079,-3.576,-2.829,0.028,0.991,-0.240,-1.190,0.092,-0.061,100.000,64383.000,1.000
-0.880,-6.895,-3.579,-0.669,-5.597,-5.959,-2.995,-2.904,0.027,0.990,-0.242,-1.221,0.092,0.000,100.000,64384.000,1.000
-0.423,-5.720,-3.170,-0.765,-6.481,-3.424,-2.136,-2.822,0.026,0.990,-0.243,-1.282,-0.031,0.092,100.000,64385.000,1.000
-0.128,-4.864,-2.888,-1.005,-6.975,-1.249,-1.497,-2.670,0.028,0.991,-0.243,-1.282,0.092,0.000,100.000,64386.000,1.000
-0.469,-4.535,-3.209,-1.846,-7.232,0.094,-1.161,-2.311,0.030,0.991,-0.240,-1.282,0.122,0.092,100.000,64387.000,1.000
-1.623,-4.684,-4.302,-3.466,-7.361,0.608,-0.897,-1.613,0.029,0.990,-0.241,-1.221,0.092,0.092,100.000,64388.000,1.000
-3.213,-4.948,-5.658,-5.397,-7.188,0.807,-0.342,-0.523,0.031,0.989,-0.242,-1.251,0.183,0.275,100.000,64389.000,1.000
-4.678,-4.887,-6.442,-6.807,-6.422,1.314,0.657,0.850,0.030,0.989,-0.239,-1.099,0.183,0.214,100.000,64390.000,1.000
-5.737,-4.358,-6.197,-7.177,-5.057,2.236,1.713,2.082,0.028,0.990,-0.239,-1.099,0.183,0.183,100.000,64391.000,1.000
-6.296,-3.485,-4.996,-6.530,-3.358,3.125,2.154,2.551,0.026,0.989,-0.241,-1.007,0.153,0.214,100.000,64392.000,1.000
-6.174,-2.312,-3.072,-5.123,-1.460,3.563,1.655,1.900,0.027,0.988,-0.242,-0.885,0.275,0.031,100.000,64393.000,1.000
-5.205,-0.740,-0.667,-3.236,0.735,3.515,0.439,0.404,0.028,0.988,-0.243,-0.885,0.366,0.183,100.000,64394.000,1.000
-3.532,1.209,1.850,-1.233,3.256,3.172,-0.911,-1.203,0.027,0.986,-0.242,-0.763,0.275,0.214,100.000,64395.000,1.000
-1.567,3.270,3.991,0.421,5.849,2.702,-1.759,-2.250,0.030,0.986,-0.241,-0.702,0.275,0.183,100.000,64396.000,1.000
0.291,5.029,5.352,1.364,8.059,2.130,-1.793,-2.497,0.029,0.988,-0.241,-0.610,0.275,0.183,100.000,64397.000,1.000
1.778,6.045,5.794,1.555,9.479,1.399,-1.155,-2.080,0.030,0.985,-0.242,-0.549,0.305,0.183,100.000,64398.000,1.000
2.765,6.045,5.513,1.326,9.994,0.592,-0.124,-1.245,0.028,0.987,-0.240,-0.366,0.305,0.183,100.000,64399.000,1.000
3.310,5.139,4.917,1.191,9.786,-0.107,1.092,-0.213,0.028,0.987,-0.242,-0.275,0.366,0.000,100.000,64400.000,1.000
3.575,3.767,4.320,1.533,9.049,-0.818,2.172,0.757,0.026,0.988,-0.240,-0.214,0.336,0.153,100.000,64401.000,1.000
3.648,2.476,3.793,2.443,7.864,-1.953,2.668,1.425,0.028,0.988,-0.243,-0.275,0.427,0.092,100.000,64402.000,1.000
3.488,1.624,3.266,3.690,6.331,-3.697,2.372,1.824,0.029,0.988,-0.243,-0.183,0.366,0.031,100.000,64403.000,1.000
2.951,1.128,2.572,4.733,4.557,-5.783,1.461,2.195,0.027,0.988,-0.242,-0.122,0.397,0.061,100.000,64404.000,1.000
1.951,0.612,1.530,4.957,2.583,-7.648,0.320,2.661,0.027,0.990,-0.240,0.092,0.397,0.000,100.000,64405.000,1.000
0.638,-0.120,0.187,4.180,0.591,-8.578,-0.562,3.230,0.025,0.988,-0.242,-0.061,0.580,0.061,100.000,64406.000,1.000
-0.734,-0.938,-1.188,2.796,-1.028,-7.983,-0.697,3.970,0.026,0.990,-0.242,-0.031,0.549,0.214,100.000,64407.000,1.000
-2.061,-1.594,-2.403,1.416,-1.937,-5.787,0.228,5.013,0.026,0.991,-0.241,0.031,0.580,0.244,100.000,64408.000,1.000
-3.280,-1.923,-3.427,0.497,-2.053,-2.605,2.182,6.407,0.025,0.988,-0.243,0.122,0.549,0.122,100.000,64409.000,1.000
-4.181,-1.969,-4.236,0.201,-1.521,0.520,4.710,7.931,0.026,0.988,-0.243,0.183,0.519,0.275,100.000,64410.000,1.000
-4.364,-1.810,-4.610,0.487,-0.458,2.924,7.219,9.185,0.027,0.987,-0.241,0.153,0.549,0.275,100.000,64411.000,1.000
-3.500,-1.333,-4.229,1.196,1.072,4.749,9.276,9.832,0.027,0.987,-0.240,0.275,0.580,0.183,100.000,64412.000,1.000
-1.932,-0.518,-3.183,1.919,2.696,6.261,10.425,9.567,0.027,0.988,-0.241,0.275,0.458,0.244,100.000,64413.000,1.000
-0.748,0.306,-2.100,2.108,3.747,7.238,10.079,8.069,0.027,0.990,-0.242,0.275,0.488,0.305,100.000,64414.000,1.000
-0.807,0.841,-1.458,1.589,3.959,7.444,8.064,5.340,0.028,0.988,-0.244,0.427,0.427,0.305,100.000,64415.000,1.000
-1.885,1.201,-1.026,0.810,3.779,7.106,5.008,1.989,0.026,0.990,-0.243,0.305,0.488,0.275,100.000,64416.000,1.000
-2.952,1.669,-0.194,0.441,3.850,6.491,1.911,-1.008,0.027,0.990,-0.240,0.397,0.488,0.275,100.000,64417.000,1.000
-2.961,2.411,1.443,0.957,4.499,5.564,-0.444,-2.799,0.027,0.990,-0.240,0.397,0.397,0.366,100.000,64418.000,1.000
-1.316,3.519,3.953,2.577,5.744,4.372,-1.588,-3.008,0.027,0.990,-0.242,0.427,0.397,0.275,100.000,64419.000,1.000
1.895,5.021,7.101,5.205,7.358,3.302,-1.435,-2.006,0.027,0.992,-0.244,0.519,0.397,0.336,100.000,64420.000,1.000
5.815,6.713,10.266,8.218,8.776,2.672,-0.570,-0.890,0.026,0.992,-0.245,0.488,0.397,0.275,100.000,64421.000,1.000
9.128,8.108,12.543,10.570,9.187,2.235,-0.125,-0.797,0.028,0.992,-0.244,0.549,0.397,0.244,100.000,64422.000,1.000
10.773,8.627,13.236,11.408,7.973,1.357,-0.991,-2.029,0.029,0.991,-0.243,0.488,0.427,0.275,100.000,64423.000,1.000
10.479,7.872,12.249,10.568,5.101,-0.372,-3.132,-3.932,0.029,0.992,-0.243,0.519,0.336,0.183,100.000,64424.000,1.000
8.700,5.820,10.013,8.492,1.188,-2.739,-5.647,-5.477,0.030,0.991,-0.243,0.519,0.427,0.183,100.000,64425.000,1.000
6.283,2.971,7.253,5.945,-2.688,-4.992,-7.334,-5.832,0.029,0.990,-0.245,0.366,0.458,0.366,100.000,64426.000,1.000
4.112,0.246,4.767,3.735,-5.405,-6.349,-7.354,-4.698,0.029,0.991,-0.243,0.427,0.397,0.305,100.000,64427.000,1.000
2.902,-1.357,3.211,2.483,-6.291,-6.506,-5.672,-2.350,0.028,0.991,-0.245,0.366,0.427,0.336,100.000,64428.000,1.000
3.148,-1.121,2.971,2.499,-5.317,-5.656,-3.008,0.613,0.028,0.989,-0.247,0.458,0.397,0.366,100.000,64429.000,1.000
4.870,0.969,3.955,3.638,-3.098,-4.172,-0.359,3.438,0.030,0.991,-0.246,0.458,0.519,0.427,100.000,64430.000,1.000
7.400,4.042,5.563,5.302,-0.645,-2.296,1.566,5.412,0.029,0.992,-0.245,0.336,0.549,0.275,100.000,64431.000,1.000
9.759,6.820,7.064,6.783,1.175,-0.108,2.604,6.226,0.031,0.991,-0.243,0.305,0.488,0.214,100.000,64432.000,1.000
11.210,8.357,7.943,7.517,1.955,2.242,2.966,6.042,0.030,0.990,-0.242,0.305,0.458,0.244,100.000,64433.000,1.000
11.389,8.357,7.861,7.108,1.599,4.334,2.856,5.166,0.030,0.988,-0.243,0.153,0.549,0.366,100.000,64434.000,1.000
10.239,7.102,6.620,5.387,0.153,5.592,2.304,3.822,0.028,0.989,-0.247,0.214,0.488,0.275,100.000,64435.000,1.000
8.080,5.272,4.354,2.624,-2.063,5.726,1.358,2.244,0.028,0.990,-0.247,0.061,0.610,0.244,100.000,64436.000,1.000
5.641,3.709,1.689,-0.358,-4.285,5.104,0.302,0.785,0.029,0.990,-0.244,0.183,0.519,0.244,100.000,64437.000,1.000
3.781,3.105,-0.401,-2.454,-5.496,4.544,-0.419,-0.259,0.030,0.989,-0.246,0.122,0.519,0.275,100.000,64438.000,1.000
2.960,3.664,-1.145,-2.970,-5.033,4.616,-0.544,-0.939,0.029,0.989,-0.248,0.092,0.549,0.275,100.000,64439.000,1.000
2.921,4.889,-0.562,-2.166,-3.195,5.115,-0.273,-1.645,0.029,0.990,-0.248,0.153,0.519,0.214,100.000,64440.000,1.000
2.977,5.854,0.566,-1.023,-1.119,5.288,-0.149,-2.820,0.030,0.991,-0.250,0.061,0.519,0.183,100.000,64441.000,1.000
2.660,5.894,1.402,-0.372,0.116,4.603,-0.557,-4.646,0.029,0.991,-0.250,-0.061,0.519,0.244,100.000,64442.000,1.000
2.091,5.075,1.713,-0.258,0.294,3.222,-1.366,-6.776,0.030,0.989,-0.249,-0.061,0.366,0.122,100.000,64443.000,1.000
1.771,3.981,1.844,-0.104,-0.005,1.725,-2.066,-8.333,0.027,0.989,-0.251,-0.153,0.336,0.183,100.000,64444.000,1.000
2.084,3.139,2.254,0.642,-0.042,0.544,-2.159,-8.394,0.027,0.989,-0.248,-0.244,0.336,0.214,100.000,64445.000,1.000
3.018,2.637,3.133,2.056,0.554,-0.252,-1.468,-6.550,0.026,0.987,-0.246,-0.153,0.244,0.275,100.000,64446.000,1.000
4.170,2.157,4.249,3.689,1.598,-0.831,-0.307,-3.143,0.027,0.988,-0.251,-0.183,0.183,0.214,100.000,64447.000,1.000
4.939,1.301,5.041,4.814,2.509,-1.330,0.737,0.901,0.026,0.990,-0.248,-0.214,0.214,0.183,100.000,64448.000,1.000
4.777,-0.106,4.929,4.865,2.781,-1.675,1.311,4.540,0.027,0.989,-0.247,-0.305,0.153,0.153,100.000,64449.000,1.000
3.354,-1.943,3.604,3.688,2.299,-1.743,1.483,6.996,0.027,0.990,-0.247,-0.366,0.183,0.092,100.000,64450.000,1.000
0.646,-3.922,1.112,1.459,1.226,-1.663,1.486,7.837,0.029,0.993,-0.244,-0.488,0.153,0.031,100.000,64451.000,1.000
-2.974,-5.784,-2.170,-1.457,-0.219,-1.735,1.459,6.934,0.027,0.991,-0.247,-0.580,0.061,0.000,100.000,64452.000,1.000
-6.736,-7.327,-5.607,-4.572,-1.790,-2.100,1.362,4.478,0.028,0.990,-0.249,-0.641,0.061,-0.031,100.000,64453.000,1.000
-9.744,-8.319,-8.501,-7.355,-3.185,-2.573,0.996,0.987,0.028,0.993,-0.249,-0.763,-0.031,0.000,100.000,64454.000,1.000
-11.388,-8.516,-10.330,-9.327,-4.079,-2.746,0.177,-2.747,0.029,0.992,-0.249,-0.854,-0.061,0.000,100.000,64455.000,1.000
-11.540,-7.812,-10.847,-10.137,-4.190,-2.331,-1.014,-5.746,0.028,0.993,-0.248,-0.854,0.031,0.031,100.000,64456.000,1.000
-10.461,-6.340,-10.064,-9.658,-3.390,-1.383,-2.162,-7.106,0.028,0.992,-0.247,-0.946,0.092,-0.092,100.000,64457.000,1.000
-8.482,-4.350,-8.160,-7.972,-1.727,-0.058,-2.682,-6.430,0.029,0.990,-0.250,-1.099,-0.061,-0.031,100.000,64458.000,1.000
-5.723,-1.969,-5.370,-5.247,0.632,1.632,-2.117,-4.011,0.029,0.990,-0.247,-1.099,0.000,0.000,100.000,64459.000,1.000
-2.287,0.738,-2.079,-1.833,3.361,3.649,-0.431,-0.665,0.029,0.990,-0.249,-1.190,-0.153,-0.031,100.000,64460.000,1.000
1.421,3.578,1.102,1.582,5.970,5.760,1.873,2.579,0.029,0.989,-0.249,-1.190,-0.244,0.000,100.000,64461.000,1.000
4.793,6.240,3.587,4.214,7.979,7.623,3.976,4.779,0.027,0.987,-0.248,-1.129,-0.092,-0.061,100.000,64462.000,1.000
7.304,8.333,5.071,5.570,9.044,8.858,5.127,5.285,0.029,0.987,-0.251,-1.068,-0.153,0.092,100.000,64463.000,1.000
8.681,9.466,5.529,5.660,9.003,9.114,4.959,3.995,0.029,0.989,-0.249,-1.038,-0.061,0.000,100.000,64464.000,1.000
8.971,9.462,5.139,4.955,7.939,8.206,3.616,1.541,0.028,0.990,-0.247,-1.007,-0.183,-0.031,100.000,64465.000,1.000
8.466,8.453,4.158,4.009,6.103,6.205,1.638,-1.062,0.029,0.992,-0.248,-1.038,-0.153,0.122,100.000,64466.000,1.000
7.492,6.750,2.828,3.037,3.798,3.433,-0.298,-3.004,0.030,0.991,-0.250,-1.099,-0.183,0.092,100.000,64467.000,1.000
6.317,4.759,1.415,2.000,1.425,0.378,-1.707,-3.857,0.028,0.990,-0.246,-1.160,-0.153,0.153,100.000,64468.000,1.000
5.157,2.868,0.203,0.948,-0.588,-2.608,-2.638,-3.576,0.028,0.990,-0.247,-1.190,-0.244,0.305,100.000,64469.000,1.000
4.122,1.243,-0.694,0.022,-2.041,-5.504,-3.546,-2.543,0.028,0.988,-0.246,-1.282,-0.153,0.153,100.000,64470.000,1.000
3.187,-0.147,-1.317,-0.657,-2.928,-8.236,-4.581,-1.281,0.030,0.989,-0.248,-1.221,-0.092,0.061,100.000,64471.000,1.000
2.217,-1.306,-1.733,-1.008,-3.207,-10.242,-5.212,-0.038,0.031,0.992,-0.249,-1.068,-0.122,-0.031,100.000,64472.000,1.000
0.990,-2.225,-2.111,-1.081,-2.883,-10.782,-4.718,1.193,0.031,0.995,-0.245,-1.129,0.000,-0.092,100.000,64473.000,1.000
-0.663,-2.988,-2.765,-1.158,-2.259,-9.789,-3.060,2.311,0.034,0.995,-0.243,-1.221,0.061,-0.061,100.000,64474.000,1.000
-2.708,-3.711,-3.954,-1.657,-1.945,-8.180,-1.133,2.866,0.031,0.991,-0.246,-1.434,0.153,-0.031,100.000,64475.000,1.000
-4.996,-4.553,-5.762,-2.952,-2.573,-7.136,-0.079,2.227,0.031,0.986,-0.250,-1.556,0.092,-0.092,100.000,64476.000,1.000
-7.406,-5.824,-8.147,-5.192,-4.454,-7.164,-0.436,0.037,0.029,0.982,-0.250,-1.373,0.183,0.031,100.000,64477.000,1.000
-9.774,-7.720,-10.800,-8.099,-7.268,-7.831,-1.886,-3.356,0.027,0.981,-0.250,-1.251,0.183,-0.031,100.000,64478.000,1.000
-11.730,-9.890,-13.009,-10.901,-10.043,-8.163,-3.542,-6.884,0.029,0.981,-0.250,-1.068,0.244,-0.061,100.000,64479.000,1.000
-12.703,-11.567,-13.932,-12.609,-11.657,-7.279,-4.467,-9.270,0.031,0.982,-0.248,-0.977,0.366,0.153,100.000,64480.000,1.000
-12.258,-12.155,-13.159,-12.540,-11.530,-4.973,-4.252,-9.768,0.031,0.984,-0.245,-0.763,0.397,0.214,100.000,64481.000,1.000
-10.629,-11.664,-11.099,-10.783,-9.998,-1.985,-3.346,-8.624,0.031,0.988,-0.246,-0.671,0.397,0.153,100.000,64482.000,1.000
-8.848,-10.698,-8.844,-8.250,-8.100,0.339,-2.640,-6.884,0.028,0.990,-0.245,-0.580,0.427,0.061,100.000,64483.000,1.000
-8.072,-10.019,-7.508,-6.198,-6.867,0.981,-2.571,-5.593,0.030,0.991,-0.245,-0.519,0.427,0.092,100.000,64484.000,1.000
-8.740,-9.996,-7.535,-5.503,-6.662,0.020,-2.838,-5.119,0.029,0.992,-0.246,-0.549,0.397,0.031,100.000,64485.000,1.000
-10.375,-10.385,-8.513,-6.155,-7.097,-1.567,-2.975,-5.100,0.029,0.992,-0.245,-0.519,0.610,0.122,100.000,64486.000,1.000
-12.028,-10.578,-9.585,-7.368,-7.479,-2.790,-2.850,-4.837,0.028,0.995,-0.245,-0.458,0.488,0.031,100.000,64487.000,1.000
-12.921,-10.131,-10.086,-8.308,-7.391,-3.271,-2.597,-3.882,0.026,0.996,-0.242,-0.549,0.519,-0.122,100.000,64488.000,1.000
-12.853,-9.112,-9.883,-8.701,-6.910,-3.199,-2.335,-2.443,0.026,0.994,-0.241,-0.702,0.549,-0.183,100.000,64489.000,1.000
-12.141,-7.929,-9.133,-8.694,-6.274,-2.857,-1.976,-1.082,0.024,0.993,-0.245,-0.732,0.519,-0.305,100.000,64490.000,1.000
-11.218,-6.876,-7.919,-8.382,-5.486,-2.343,-1.329,-0.124,0.025,0.992,-0.245,-0.946,0.488,-0.427,100.000,64491.000,1.000
-10.315,-5.981,-6.247,-7.686,-4.395,-1.795,-0.428,0.491,0.025,0.993,-0.241,-0.977,0.275,-0.580,100.000,64492.000,1.000
-9.367,-5.149,-4.214,-6.510,-2.960,-1.560,0.366,0.925,0.025,0.993,-0.240,-0.946,0.183,-0.641,100.000,64493.000,1.000
-8.187,-4.337,-2.070,-4.883,-1.351,-1.909,0.607,1.165,0.024,0.993,-0.243,-1.038,0.153,-0.580,100.000,64494.000,1.000
-6.757,-3.576,-0.167,-3.025,0.140,-2.703,0.045,1.069,0.025,0.990,-0.240,-0.977,0.092,-0.641,100.000,64495.000,1.000
-5.157,-2.766,1.329,-1.100,1.419,-3.398,-1.065,0.804,0.025,0.990,-0.241,-0.977,0.000,-0.671,100.000,64496.000,1.000
-3.289,-1.560,2.681,1.019,2.750,-3.360,-1.968,0.957,0.024,0.992,-0.239,-0.946,-0.031,-0.610,100.000,64497.000,1.000
-1.025,0.283,4.285,3.459,4.384,-2.314,-2.012,1.963,0.022,0.994,-0.241,-0.854,-0.153,-0.610,100.000,64498.000,1.000
1.418,2.485,6.153,5.913,6.139,-0.496,-1.178,3.572,0.022,0.993,-0.242,-0.916,-0.183,-0.610,100.000,64499.000,1.000
3.526,4.428,7.868,7.759,7.522,1.587,0.047,5.015,0.022,0.996,-0.238,-0.946,-0.214,-0.427,100.000,64500.000,1.000
4.969,5.759,9.028,8.608,8.206,3.524,1.175,5.636,0.022,0.995,-0.239,-0.916,-0.366,-0.366,100.000,64501.000,1.000
5.888,6.640,9.568,8.595,8.215,5.113,2.003,5.361,0.020,0.996,-0.237,-0.977,-0.519,-0.305,100.000,64502.000,1.000
6.599,7.319,9.551,8.077,7.644,6.237,2.497,4.552,0.019,0.995,-0.238,-1.099,-0.671,-0.336,100.000,64503.000,1.000
7.118,7.651,8.875,7.255,6.430,6.763,2.638,3.534,0.018,0.995,-0.237,-1.190,-0.732,-0.244,100.000,64504.000,1.000
7.100,7.177,7.382,6.158,4.509,6.547,2.426,2.418,0.020,0.995,-0.234,-1.221,-0.824,-0.092,100.000,64505.000,1.000
6.250,5.600,5.193,4.867,2.070,5.518,1.858,1.307,0.020,0.993,-0.237,-1.251,-0.916,-0.122,100.000,64506.000,1.000
4.738,3.152,2.874,3.640,-0.365,3.876,0.997,0.456,0.021,0.992,-0.239,-1.251,-0.977,0.061,100.000,64507.000,1.000
3.124,0.593,1.224,2.814,-2.072,2.192,0.137,0.165,0.021,0.993,-0.239,-1.282,-1.068,0.031,100.000,64508.000,1.000
1.925,-1.140,0.827,2.587,-2.438,1.126,-0.228,0.596,0.023,0.991,-0.236,-1.373,-1.068,0.092,100.000,64509.000,1.000
1.322,-1.457,1.691,2.841,-1.274,1.000,0.389,1.742,0.026,0.990,-0.236,-1.434,-1.038,0.153,100.000,64510.000,1.000
1.184,-0.447,3.239,3.220,1.080,1.693,2.221,3.442,0.026,0.990,-0.238,-1.465,-1.038,0.214,100.000,64511.000,1.000
1.306,1.345,4.728,3.462,3.981,2.868,5.038,5.393,0.029,0.988,-0.239,-1.404,-1.099,0.244,100.000,64512.000,1.000
1.599,3.367,5.723,3.691,6.790,4.227,8.128,7.288,0.030,0.985,-0.240,-1.312,-1.007,0.244,100.000,64513.000,1.000
2.066,5.199,6.155,4.234,9.007,5.493,10.591,9.011,0.030,0.985,-0.238,-1.221,-0.946,0.275,100.000,64514.000,1.000
2.694,6.455,6.133,5.232,10.266,6.192,11.777,10.608,0.030,0.985,-0.237,-1.129,-0.763,0.275,100.000,64515.000,1.000
3.387,6.766,5.790,6.446,10.348,5.672,11.433,11.943,0.031,0.982,-0.237,-1.038,-0.580,0.336,100.000,64516.000,1.000
3.877,5.881,5.165,7.304,9.182,3.566,9.579,12.420,0.032,0.981,-0.239,-0.824,-0.427,0.366,100.000,64517.000,1.000
3.837,3.838,4.238,7.196,6.944,0.295,6.448,11.267,0.033,0.979,-0.240,-0.519,-0.214,0.275,100.000,64518.000,1.000
3.198,1.166,3.157,5.982,4.195,-2.984,2.581,8.265,0.034,0.979,-0.240,-0.366,-0.061,0.488,100.000,64519.000,1.000
2.297,-1.240,2.266,4.205,1.742,-5.052,-1.259,4.109,0.036,0.981,-0.238,-0.153,0.061,0.397,100.000,64520.000,1.000
1.620,-2.670,1.815,2.663,0.152,-5.331,-4.407,-0.085,0.033,0.982,-0.241,0.061,0.366,0.336,100.000,64521.000,1.000
1.497,-2.961,1.806,1.855,-0.535,-4.081,-6.438,-3.421,0.032,0.982,-0.242,0.244,0.549,0.458,100.000,64522.000,1.000
1.992,-2.289,2.158,1.837,-0.592,-2.055,-7.031,-5.378,0.032,0.981,-0.241,0.366,0.732,0.519,100.000,64523.000,1.000
2.972,-0.839,2.881,2.416,-0.244,0.076,-5.985,-5.796,0.032,0.981,-0.242,0.580,0.824,0.519,100.000,64524.000,1.000
4.208,1.191,4.004,3.296,0.376,1.984,-3.596,-4.997,0.032,0.982,-0.244,0.763,0.946,0.519,100.000,64525.000,1.000
5.335,3.406,5.310,4.028,0.976,3.437,-0.869,-3.720,0.033,0.983,-0.241,0.885,1.099,0.305,100.000,64526.000,1.000
5.822,5.142,6.232,4.036,1.079,4.085,0.942,-2.714,0.031,0.985,-0.244,1.129,1.190,0.336,100.000,64527.000,1.000
5.264,5.788,6.249,3.052,0.436,3.699,1.168,-2.217,0.030,0.986,-0.243,1.160,1.404,0.305,100.000,64528.000,1.000
3.830,5.265,5.405,1.479,-0.633,2.566,0.151,-1.861,0.028,0.988,-0.243,1.221,1.495,0.214,100.000,64529.000,1.000
2.223,4.142,4.284,0.089,-1.499,1.487,-1.117,-1.215,0.028,0.989,-0.242,1.282,1.526,0.244,100.000,64530.000,1.000
1.192,3.263,3.520,-0.572,-1.699,1.283,-1.700,-0.275,0.026,0.989,-0.244,1.343,1.526,0.153,100.000,64531.000,1.000
1.141,3.261,3.433,-0.390,-1.085,2.267,-1.143,0.692,0.026,0.991,-0.244,1.373,1.556,0.183,100.000,64532.000,1.000
1.991,4.215,3.929,0.446,0.217,4.033,0.416,1.512,0.027,0.992,-0.248,1.434,1.495,0.122,100.000,64533.000,1.000
3.254,5.599,4.586,1.560,1.816,5.640,2.257,2.108,0.024,0.994,-0.248,1.465,1.465,0.183,100.000,64534.000,1.000
4.359,6.648,4.960,2.542,3.182,6.143,3.384,2.297,0.024,0.994,-0.246,1.373,1.434,0.061,100.000,64535.000,1.000
4.998,6.958,4.937,3.122,3.978,5.270,3.182,1.824,0.024,0.994,-0.245,1.312,1.282,0.061,100.000,64536.000,1.000
5.194,6.745,4.785,3.251,4.263,3.600,1.929,0.704,0.023,0.998,-0.246,1.099,1.129,0.031,100.000,64537.000,1.000
5.123,6.402,4.799,3.015,4.292,2.051,0.606,-0.654,0.024,0.999,-0.244,1.007,1.099,0.061,100.000,64538.000,1.000
4.940,5.959,4.947,2.473,4.157,1.278,0.203,-1.761,0.023,0.996,-0.242,0.946,0.946,0.122,100.000,64539.000,1.000
4.718,5.195,4.890,1.644,3.764,1.483,1.207,-2.332,0.024,0.992,-0.242,0.732,0.946,0.122,100.000,64540.000,1.000
4.403,4.068,4.284,0.608,3.066,2.522,3.465,-2.265,0.024,0.991,-0.245,0.580,1.007,0.092,100.000,64541.000,1.000
3.862,2.834,3.059,-0.397,2.151,3.922,6.193,-1.620,0.024,0.991,-0.249,0.610,0.854,0.061,100.000,64542.000,1.000
3.057,1.832,1.503,-1.087,1.089,4.892,8.095,-0.782,0.027,0.997,-0.250,0.488,0.641,0.275,100.000,64543.000,1.000
2.103,1.230,0.038,-1.418,-0.186,4.660,7.951,-0.472,0.028,0.998,-0.249,0.519,0.641,0.275,100.000,64544.000,1.000
1.122,0.886,-1.104,-1.684,-1.748,3.001,5.463,-1.283,0.027,0.998,-0.246,0.427,0.641,0.336,100.000,64545.000,1.000
0.107,0.473,-2.003,-2.304,-3.496,0.395,1.515,-3.204,0.027,0.998,-0.250,0.244,0.580,0.427,100.000,64546.000,1.000
-0.955,-0.137,-2.789,-3.455,-5.063,-2.261,-2.352,-5.631,0.025,0.996,-0.252,0.122,0.519,0.610,100.000,64547.000,1.000
-1.791,-0.665,-3.302,-4.773,-5.858,-4.054,-4.647,-7.580,0.026,0.993,-0.250,-0.031,0.549,0.610,100.000,64548.000,1.000
-1.932,-0.727,-3.213,-5.503,-5.414,-4.510,-4.701,-8.052,0.028,0.992,-0.250,-0.031,0.519,0.549,100.000,64549.000,1.000
-1.199,-0.271,-2.462,-5.117,-3.856,-3.901,-3.213,-6.600,0.030,0.992,-0.247,-0.031,0.427,0.549,100.000,64550.000,1.000
0.114,0.393,-1.367,-3.675,-1.872,-2.992,-1.680,-3.668,0.028,0.994,-0.247,-0.122,0.336,0.549,100.000,64551.000,1.000
