EEG 1,EEG 2,EEG 3,EEG 4,EEG 5,EEG 6,EEG 7,EEG 8,Accelerometer X,Accelerometer Y,Accelerometer Z,Gyroscope X,Gyroscope Y,Gyroscope Z,Battery Level,Counter,Validation Indicator
-0.521,0.623,0.639,2.297,4.130,0.855,3.637,3.640,0.037,0.993,-0.207,0.214,-0.061,0.092,100.000,41769.000,1.000
1.431,2.345,2.995,2.815,5.484,1.527,3.549,4.120,0.038,0.993,-0.209,0.275,0.092,0.092,100.000,41770.000,1.000
2.551,3.761,5.074,2.999,6.512,2.004,2.905,4.255,0.038,0.992,-0.208,0.275,0.061,0.153,100.000,41771.000,1.000
2.216,4.198,6.128,2.533,6.864,2.028,2.112,3.865,0.040,0.994,-0.209,0.305,0.031,0.031,100.000,41772.000,1.000
0.388,3.452,5.824,1.464,6.567,1.767,1.706,3.170,0.041,0.993,-0.212,0.397,0.153,-0.183,100.000,41773.000,1.000
-2.173,1.976,4.489,0.353,6.056,1.721,2.202,2.754,0.041,0.993,-0.210,0.336,0.183,-0.336,100.000,41774.000,1.000
-4.276,0.591,2.897,-0.089,5.845,2.381,3.756,3.048,0.040,0.995,-0.210,0.305,0.153,-0.336,100.000,41775.000,1.000
-5.036,-0.036,1.769,0.439,6.122,3.751,5.830,3.875,0.041,0.995,-0.207,0.336,0.244,-0.336,100.000,41776.000,1.000
-4.400,0.199,1.365,1.576,6.591,5.198,7.367,4.657,0.041,0.998,-0.208,0.336,0.275,-0.458,100.000,41777.000,1.000
-3.108,0.730,1.311,2.454,6.615,5.871,7.522,4.905,0.040,0.997,-0.207,0.366,0.366,-0.427,100.000,41778.000,1.000
-2.166,0.705,0.874,2.221,5.595,5.286,6.175,4.329,0.041,0.998,-0.209,0.397,0.366,-0.458,100.000,41779.000,1.000
-2.125,-0.294,-0.354,0.727,3.480,3.706,3.901,2.914,0.043,1.001,-0.211,0.336,0.580,-0.336,100.000,41780.000,1.000
-2.683,-1.816,-2.004,-1.249,1.001,2.073,1.730,1.248,0.042,1.002,-0.209,0.336,0.610,-0.366,100.000,41781.000,1.000
-3.010,-2.945,-3.283,-2.604,-0.803,1.287,0.606,0.296,0.039,1.001,-0.210,0.275,0.580,-0.183,100.000,41782.000,1.000
-2.567,-3.135,-3.703,-2.756,-1.387,1.408,0.738,0.443,0.038,1.002,-0.209,0.183,0.702,-0.153,100.000,41783.000,1.000
-1.528,-2.545,-3.325,-1.853,-0.950,1.766,1.525,1.131,0.037,1.002,-0.208,0.092,0.732,-0.031,100.000,41784.000,1.000
-0.536,-1.740,-2.553,-0.503,-0.135,1.679,2.124,1.551,0.037,1.002,-0.208,0.092,0.641,0.000,100.000,41785.000,1.000
-0.236,-1.293,-1.919,0.462,0.341,0.816,1.953,1.280,0.037,1.002,-0.208,-0.031,0.671,-0.061,100.000,41786.000,1.000
-0.883,-1.459,-1.852,0.319,0.006,-0.761,0.934,0.330,0.039,1.002,-0.208,-0.153,0.549,0.061,100.000,41787.000,1.000
-2.178,-2.005,-2.439,-1.129,-1.111,-2.498,-0.479,-1.131,0.036,1.001,-0.208,-0.336,0.488,0.122,100.000,41788.000,1.000
-3.469,-2.409,-3.433,-3.425,-2.536,-3.571,-1.630,-2.913,0.036,1.000,-0.207,-0.366,0.610,0.061,100.000,41789.000,1.000
-4.252,-2.361,-4.534,-5.785,-3.760,-3.586,-2.189,-4.686,0.036,1.000,-0.208,-0.427,0.519,0.031,100.000,41790.000,1.000
-4.516,-2.053,-5.642,-7.620,-4.644,-2.930,-2.338,-6.031,0.036,0.999,-0.206,-0.488,0.519,-0.061,100.000,41791.000,1.000
-4.651,-2.011,-6.833,-8.788,-5.424,-2.272,-2.441,-6.678,0.036,1.000,-0.206,-0.519,0.427,0.000,100.000,41792.000,1.000
-5.045,-2.615,-8.118,-9.440,-6.336,-1.921,-2.641,-6.643,0.036,1.000,-0.208,-0.641,0.427,0.031,100.000,41793.000,1.000
-5.743,-3.743,-9.276,-9.698,-7.265,-1.704,-2.748,-6.126,0.037,0.998,-0.207,-0.549,0.336,0.000,100.000,41794.000,1.000
-6.419,-4.847,-9.918,-9.477,-7.768,-1.225,-2.397,-5.279,0.038,1.000,-0.207,-0.641,0.336,-0.122,100.000,41795.000,1.000
-6.621,-5.346,-9.726,-8.606,-7.432,-0.298,-1.419,-4.132,0.040,0.998,-0.205,-0.793,0.336,-0.183,100.000,41796.000,1.000
-6.081,-4.930,-8.667,-7.078,-6.246,0.791,-0.140,-2.811,0.041,0.998,-0.207,-0.732,0.275,-0.092,100.000,41797.000,1.000
-4.920,-3.692,-7.083,-5.204,-4.662,1.482,0.805,-1.668,0.041,0.997,-0.207,-0.793,0.305,-0.305,100.000,41798.000,1.000
-3.713,-2.257,-5.681,-3.667,-3.425,1.276,0.934,-1.127,0.039,0.999,-0.205,-0.824,0.305,-0.366,100.000,41799.000,1.000
-3.168,-1.597,-5.213,-3.247,-3.199,-0.084,0.177,-1.421,0.039,0.996,-0.205,-0.793,0.214,-0.519,100.000,41800.000,1.000
-3.459,-2.212,-5.780,-4.121,-4.002,-2.293,-1.042,-2.386,0.039,0.996,-0.206,-0.793,0.183,-0.397,100.000,41801.000,1.000
-3.987,-3.548,-6.612,-5.592,-5.095,-4.369,-2.070,-3.532,0.038,0.994,-0.204,-0.671,0.214,-0.366,100.000,41802.000,1.000
-3.994,-4.532,-6.794,-6.736,-5.728,-5.431,-2.660,-4.468,0.039,0.995,-0.203,-0.610,0.214,-0.610,100.000,41803.000,1.000
-3.181,-4.442,-5.954,-7.027,-5.745,-5.520,-3.213,-5.076,0.038,0.994,-0.203,-0.641,0.183,-0.549,100.000,41804.000,1.000
-1.709,-3.147,-4.248,-6.341,-5.364,-5.328,-4.178,-5.239,0.038,0.995,-0.207,-0.427,0.214,-0.641,100.000,41805.000,1.000
0.027,-1.011,-2.163,-4.875,-4.802,-5.334,-5.420,-4.789,0.036,0.994,-0.206,-0.458,0.153,-0.641,100.000,41806.000,1.000
1.568,1.228,-0.309,-3.069,-4.184,-5.499,-6.273,-3.738,0.035,0.996,-0.207,-0.397,0.122,-0.763,100.000,41807.000,1.000
2.572,2.794,0.898,-1.330,-3.523,-5.585,-6.127,-2.240,0.036,0.996,-0.205,-0.275,0.000,-0.885,100.000,41808.000,1.000
2.879,3.285,1.381,0.051,-2.789,-5.481,-4.933,-0.512,0.034,0.996,-0.209,-0.244,-0.092,-0.854,100.000,41809.000,1.000
2.447,2.763,1.253,0.779,-2.092,-5.237,-3.240,1.056,0.034,0.994,-0.207,-0.153,-0.214,-0.916,100.000,41810.000,1.000
1.458,1.624,0.775,0.724,-1.616,-4.850,-1.652,1.993,0.035,0.995,-0.205,-0.122,-0.305,-0.824,100.000,41811.000,1.000
0.453,0.443,0.432,0.225,-1.318,-3.979,-0.221,2.119,0.033,0.995,-0.206,-0.031,-0.305,-0.793,100.000,41812.000,1.000
0.026,-0.271,0.688,-0.120,-0.931,-2.114,1.366,1.641,0.034,0.997,-0.206,-0.031,-0.427,-0.763,100.000,41813.000,1.000
0.385,-0.391,1.562,-0.025,-0.322,0.706,3.029,0.871,0.033,0.997,-0.208,-0.061,-0.519,-0.824,100.000,41814.000,1.000
1.327,-0.206,2.615,0.336,0.334,3.601,4.076,-0.008,0.034,0.999,-0.206,-0.061,-0.580,-0.793,100.000,41815.000,1.000
2.560,-0.029,3.397,0.724,0.812,5.508,3.859,-0.853,0.031,0.999,-0.206,-0.153,-0.610,-0.793,100.000,41816.000,1.000
3.926,0.155,3.864,1.216,1.167,5.964,2.528,-1.345,0.033,0.997,-0.208,-0.122,-0.641,-0.732,100.000,41817.000,1.000
5.355,0.623,4.340,2.126,1.734,5.264,1.025,-1.040,0.035,0.998,-0.208,-0.061,-0.763,-0.824,100.000,41818.000,1.000
6.703,1.596,5.108,3.587,2.825,4.106,0.305,0.265,0.037,0.998,-0.207,-0.305,-0.732,-0.702,100.000,41819.000,1.000
7.698,2.991,6.103,5.289,4.446,3.148,0.713,2.262,0.036,1.001,-0.207,-0.336,-0.702,-0.763,100.000,41820.000,1.000
7.964,4.321,6.890,6.611,6.221,2.686,1.927,4.254,0.035,1.001,-0.210,-0.458,-0.793,-0.763,100.000,41821.000,1.000
7.082,4.840,6.849,6.917,7.464,2.447,3.121,5.423,0.035,1.002,-0.208,-0.519,-0.702,-0.671,100.000,41822.000,1.000
4.953,4.102,5.677,6.004,7.622,1.875,3.510,5.246,0.035,1.002,-0.208,-0.488,-0.732,-0.549,100.000,41823.000,1.000
2.207,2.488,3.871,4.470,6.875,0.870,3.129,4.007,0.036,1.001,-0.208,-0.549,-0.824,-0.458,100.000,41824.000,1.000
-0.084,0.962,2.418,3.364,6.051,0.010,2.747,2.645,0.037,1.000,-0.210,-0.702,-0.671,-0.488,100.000,41825.000,1.000
-1.128,0.299,1.956,3.350,5.836,-0.070,2.958,1.923,0.034,1.002,-0.208,-0.793,-0.671,-0.763,100.000,41826.000,1.000
-0.793,0.561,2.359,4.244,6.206,0.615,3.657,1.899,0.033,1.002,-0.208,-0.824,-0.732,-0.580,100.000,41827.000,1.000
0.533,1.173,3.005,5.298,6.543,1.438,4.353,2.210,0.035,1.002,-0.206,-0.946,-0.580,-0.549,100.000,41828.000,1.000
2.226,1.447,3.292,5.780,6.145,1.828,4.695,2.531,0.034,1.001,-0.206,-1.129,-0.580,-0.580,100.000,41829.000,1.000
3.599,1.049,2.931,5.317,4.629,1.666,4.575,2.568,0.035,1.002,-0.207,-1.251,-0.427,-0.580,100.000,41830.000,1.000
4.164,0.146,2.005,3.981,2.157,1.147,3.917,1.985,0.037,1.000,-0.206,-1.312,-0.427,-0.549,100.000,41831.000,1.000
3.928,-0.718,0.920,2.230,-0.568,0.564,2.689,0.701,0.036,1.000,-0.206,-1.282,-0.427,-0.580,100.000,41832.000,1.000
3.359,-0.921,0.182,0.702,-2.604,0.192,1.145,-0.874,0.037,1.001,-0.206,-1.495,-0.275,-0.519,100.000,41833.000,1.000
3.056,-0.113,0.180,0.006,-3.193,0.245,-0.096,-2.001,0.039,1.001,-0.206,-1.648,-0.275,-0.549,100.000,41834.000,1.000
3.372,1.552,1.056,0.488,-2.102,0.759,-0.440,-2.054,0.038,1.000,-0.209,-1.648,-0.214,-0.427,100.000,41835.000,1.000
4.190,3.435,2.586,1.950,0.185,1.443,0.086,-0.954,0.038,0.999,-0.206,-1.648,-0.092,-0.549,100.000,41836.000,1.000
4.989,4.721,4.215,3.684,2.654,1.855,0.879,0.741,0.037,0.997,-0.205,-1.587,-0.092,-0.549,100.000,41837.000,1.000
5.198,4.822,5.342,4.907,4.321,1.876,1.466,2.241,0.038,0.997,-0.206,-1.526,0.000,-0.519,100.000,41838.000,1.000
4.636,3.715,5.741,5.270,4.803,1.908,1.861,3.059,0.035,0.996,-0.207,-1.495,0.153,-0.610,100.000,41839.000,1.000
3.688,2.040,5.706,4.982,4.475,2.479,2.199,3.212,0.035,0.994,-0.205,-1.526,0.153,-0.488,100.000,41840.000,1.000
2.992,0.739,5.710,4.454,4.057,3.603,2.352,2.873,0.033,0.995,-0.204,-1.404,0.214,-0.427,100.000,41841.000,1.000
2.918,0.480,5.981,3.922,4.052,4.605,2.033,2.073,0.035,0.993,-0.205,-1.465,0.275,-0.488,100.000,41842.000,1.000
3.397,1.345,6.481,3.418,4.567,4.716,1.126,0.874,0.035,0.994,-0.202,-1.282,0.183,-0.397,100.000,41843.000,1.000
4.080,2.945,7.009,2.867,5.421,3.822,-0.062,-0.453,0.032,0.994,-0.206,-1.190,0.244,-0.366,100.000,41844.000,1.000
4.539,4.696,7.250,2.147,6.269,2.568,-0.891,-1.592,0.031,0.994,-0.204,-1.099,0.275,-0.397,100.000,41845.000,1.000
4.492,6.078,6.952,1.268,6.758,1.739,-0.926,-2.259,0.033,0.995,-0.203,-0.977,0.275,-0.397,100.000,41846.000,1.000
3.927,6.801,6.132,0.483,6.691,1.615,-0.377,-2.174,0.033,0.996,-0.203,-0.977,0.244,-0.366,100.000,41847.000,1.000
3.097,6.861,5.063,0.130,6.119,1.923,0.136,-1.223,0.032,0.997,-0.202,-0.793,0.275,-0.183,100.000,41848.000,1.000
2.430,6.534,4.075,0.349,5.274,2.237,0.130,0.305,0.034,0.997,-0.204,-0.793,0.336,-0.061,100.000,41849.000,1.000
2.239,6.136,3.296,0.887,4.297,2.222,-0.505,1.854,0.034,0.997,-0.202,-0.732,0.366,-0.092,100.000,41850.000,1.000
2.365,5.689,2.498,1.124,3.074,1.702,-1.550,2.992,0.036,0.997,-0.200,-0.549,0.336,-0.122,100.000,41851.000,1.000
2.201,4.915,1.261,0.390,1.406,0.729,-2.592,3.506,0.034,1.000,-0.203,-0.488,0.305,-0.061,100.000,41852.000,1.000
1.169,3.591,-0.641,-1.553,-0.692,-0.448,-3.210,3.329,0.034,0.999,-0.203,-0.458,0.366,-0.244,100.000,41853.000,1.000
-0.807,1.775,-2.984,-4.199,-2.902,-1.564,-3.175,2.534,0.032,0.999,-0.203,-0.488,0.366,-0.244,100.000,41854.000,1.000
-3.261,-0.280,-5.181,-6.556,-4.774,-2.448,-2.554,1.211,0.033,0.997,-0.205,-0.427,0.458,-0.214,100.000,41855.000,1.000
-5.514,-2.228,-6.632,-7.796,-5.963,-2.946,-1.614,-0.531,0.034,0.997,-0.203,-0.305,0.397,-0.031,100.000,41856.000,1.000
-7.137,-3.767,-7.120,-7.765,-6.409,-3.006,-0.751,-2.405,0.034,0.997,-0.203,-0.305,0.336,0.122,100.000,41857.000,1.000
-8.208,-4.864,-7.027,-7.032,-6.479,-2.889,-0.490,-4.100,0.034,0.997,-0.205,-0.275,0.366,0.000,100.000,41858.000,1.000
-9.100,-5.791,-7.056,-6.454,-6.795,-3.079,-1.261,-5.527,0.035,0.999,-0.207,-0.244,0.427,0.000,100.000,41859.000,1.000
-9.949,-6.721,-7.585,-6.517,-7.693,-3.774,-2.939,-6.666,0.035,0.998,-0.206,-0.183,0.427,-0.031,100.000,41860.000,1.000
-10.437,-7.397,-8.359,-6.982,-8.864,-4.553,-4.701,-7.285,0.034,0.999,-0.202,-0.244,0.458,0.000,100.000,41861.000,1.000
-10.228,-7.438,-8.911,-7.266,-9.684,-4.754,-5.571,-7.124,0.035,1.000,-0.204,-0.214,0.519,0.061,100.000,41862.000,1.000
-9.550,-6.921,-9.192,-7.182,-9.882,-4.227,-5.301,-6.401,0.034,1.000,-0.203,-0.244,0.519,0.092,100.000,41863.000,1.000
-9.091,-6.374,-9.521,-7.057,-9.666,-3.481,-4.548,-5.733,0.036,0.999,-0.203,-0.305,0.488,0.000,100.000,41864.000,1.000
-9.132,-6.173,-9.900,-7.010,-9.160,-3.017,-3.967,-5.337,0.033,1.000,-0.203,-0.366,0.366,0.092,100.000,41865.000,1.000
-8.964,-6.117,-9.696,-6.432,-8.044,-2.686,-3.371,-4.703,0.031,1.000,-0.203,-0.397,0.336,0.092,100.000,41866.000,1.000
-7.435,-5.695,-8.174,-4.480,-5.920,-1.825,-1.990,-3.139,0.032,1.000,-0.203,-0.366,0.427,0.122,100.000,41867.000,1.000
-4.080,-4.638,-5.223,-0.962,-2.850,0.028,0.611,-0.373,0.032,1.000,-0.203,-0.519,0.305,0.061,100.000,41868.000,1.000
0.371,-3.173,-1.533,3.352,0.513,2.531,3.840,3.151,0.031,0.999,-0.204,-0.488,0.275,0.092,100.000,41869.000,1.000
4.435,-1.875,1.735,7.127,3.169,4.527,6.213,6.257,0.031,0.999,-0.204,-0.519,0.244,0.153,100.000,41870.000,1.000
6.779,-1.239,3.569,9.159,4.276,4.793,6.366,7.629,0.033,0.999,-0.205,-0.488,0.214,0.122,100.000,41871.000,1.000
6.929,-1.287,3.686,9.009,3.714,3.022,4.131,6.771,0.035,0.999,-0.204,-0.549,0.275,0.061,100.000,41872.000,1.000
5.389,-1.576,2.610,7.198,2.173,0.033,0.652,4.324,0.033,0.999,-0.204,-0.519,0.122,0.031,100.000,41873.000,1.000
3.168,-1.612,1.176,4.783,0.605,-2.960,-2.382,1.431,0.033,0.998,-0.207,-0.549,0.061,0.061,100.000,41874.000,1.000
1.063,-1.227,-0.015,2.703,-0.420,-5.104,-3.726,-1.018,0.033,0.996,-0.207,-0.519,0.000,0.153,100.000,41875.000,1.000
-0.652,-0.596,-0.738,1.368,-0.910,-6.194,-3.343,-2.632,0.034,0.994,-0.208,-0.458,0.000,0.031,100.000,41876.000,1.000
-1.950,0.067,-0.959,0.695,-1.149,-6.516,-2.293,-3.307,0.033,0.994,-0.207,-0.458,0.031,0.153,100.000,41877.000,1.000
-2.714,0.760,-0.660,0.462,-1.278,-6.365,-1.763,-3.015,0.035,0.993,-0.207,-0.397,0.000,0.214,100.000,41878.000,1.000
-2.774,1.577,0.111,0.568,-1.229,-5.790,-2.236,-1.864,0.035,0.995,-0.205,-0.366,-0.122,0.122,100.000,41879.000,1.000
-2.129,2.441,1.157,0.978,-0.950,-4.772,-3.317,-0.287,0.037,0.996,-0.205,-0.305,0.000,0.153,100.000,41880.000,1.000
-1.006,3.137,2.221,1.603,-0.482,-3.399,-4.048,1.072,0.037,0.996,-0.204,-0.183,-0.092,0.183,100.000,41881.000,1.000
0.199,3.452,3.089,2.257,0.093,-1.894,-3.630,1.684,0.037,0.998,-0.206,-0.183,0.000,0.214,100.000,41882.000,1.000
1.024,3.213,3.572,2.671,0.612,-0.534,-2.108,1.339,0.037,0.996,-0.206,-0.214,0.000,0.244,100.000,41883.000,1.000
1.248,2.490,3.668,2.739,0.970,0.476,-0.355,0.316,0.039,0.996,-0.205,-0.275,0.061,0.153,100.000,41884.000,1.000
1.078,1.659,3.659,2.672,1.237,0.959,0.591,-0.637,0.040,0.995,-0.204,-0.153,0.092,0.122,100.000,41885.000,1.000
0.820,1.003,3.800,2.706,1.471,0.745,0.254,-0.897,0.038,0.994,-0.206,-0.153,0.214,0.031,100.000,41886.000,1.000
0.641,0.529,4.140,2.948,1.639,-0.019,-0.925,-0.455,0.038,0.995,-0.208,-0.183,0.214,0.092,100.000,41887.000,1.000
0.705,0.318,4.726,3.573,1.816,-0.750,-1.896,0.355,0.039,0.995,-0.207,-0.153,0.214,-0.031,100.000,41888.000,1.000
1.113,0.520,5.532,4.622,2.101,-0.952,-1.859,1.195,0.037,0.997,-0.207,-0.061,0.275,0.092,100.000,41889.000,1.000
1.663,1.004,6.156,5.566,2.354,-0.644,-0.825,1.794,0.036,0.998,-0.206,-0.092,0.305,-0.183,100.000,41890.000,1.000
1.989,1.360,6.004,5.605,2.334,-0.143,0.665,2.119,0.036,0.999,-0.206,-0.061,0.397,-0.153,100.000,41891.000,1.000
1.807,1.129,4.724,4.309,1.893,0.239,1.973,2.311,0.034,0.999,-0.208,-0.092,0.397,0.031,100.000,41892.000,1.000
0.984,-0.018,2.347,1.751,0.932,0.256,2.523,2.245,0.034,0.999,-0.206,-0.122,0.305,-0.153,100.000,41893.000,1.000
-0.332,-1.978,-0.639,-1.532,-0.529,-0.158,2.066,1.627,0.035,1.001,-0.204,-0.092,0.244,-0.275,100.000,41894.000,1.000
-1.720,-4.124,-3.426,-4.641,-2.251,-0.894,0.807,0.474,0.033,1.001,-0.205,-0.183,0.244,-0.244,100.000,41895.000,1.000
-2.752,-5.664,-5.277,-6.639,-3.900,-1.847,-0.815,-0.778,0.033,1.002,-0.205,-0.214,0.153,-0.275,100.000,41896.000,1.000
-3.035,-5.891,-5.657,-6.816,-4.992,-2.732,-2.173,-1.413,0.033,1.000,-0.206,-0.214,0.092,-0.305,100.000,41897.000,1.000
-2.140,-4.374,-4.257,-4.908,-4.915,-2.893,-2.498,-0.767,0.033,1.001,-0.206,-0.305,0.214,-0.366,100.000,41898.000,1.000
0.039,-1.397,-1.363,-1.428,-3.439,-1.821,-1.385,1.227,0.031,0.998,-0.207,-0.305,0.305,-0.244,100.000,41899.000,1.000
2.949,1.969,2.002,2.400,-1.070,0.251,0.794,3.876,0.032,0.998,-0.205,-0.397,0.183,-0.092,100.000,41900.000,1.000
5.713,4.606,4.706,5.387,1.394,2.612,3.218,6.240,0.031,0.999,-0.205,-0.336,0.061,-0.031,100.000,41901.000,1.000
7.787,6.092,6.265,7.109,3.513,4.729,5.180,7.719,0.032,0.997,-0.208,-0.488,0.092,0.031,100.000,41902.000,1.000
9.047,6.596,6.818,7.785,5.136,6.235,6.138,8.044,0.033,0.999,-0.205,-0.427,0.031,0.031,100.000,41903.000,1.000
9.416,6.314,6.519,7.636,5.971,6.637,5.562,7.026,0.033,0.998,-0.207,-0.397,0.061,0.122,100.000,41904.000,1.000
8.768,5.348,5.338,6.629,5.699,5.598,3.291,4.723,0.032,1.000,-0.206,-0.458,0.031,0.183,100.000,41905.000,1.000
7.178,3.964,3.382,4.791,4.432,3.432,-0.028,1.702,0.033,0.999,-0.206,-0.519,-0.092,0.244,100.000,41906.000,1.000
4.990,2.557,1.056,2.423,2.674,0.912,-3.230,-1.245,0.032,0.998,-0.207,-0.519,-0.092,0.244,100.000,41907.000,1.000
2.595,1.275,-1.204,-0.082,0.841,-1.324,-5.373,-3.536,0.034,1.000,-0.206,-0.580,-0.214,0.366,100.000,41908.000,1.000
0.406,0.043,-3.076,-2.353,-0.838,-2.830,-6.012,-4.801,0.033,1.002,-0.208,-0.549,-0.153,0.366,100.000,41909.000,1.000
-1.056,-1.059,-4.214,-3.949,-2.031,-3.131,-5.089,-4.796,0.034,1.004,-0.207,-0.641,-0.244,0.549,100.000,41910.000,1.000
-1.487,-1.791,-4.409,-4.526,-2.379,-1.998,-2.944,-3.673,0.034,1.006,-0.204,-0.763,-0.275,0.458,100.000,41911.000,1.000
-1.127,-2.036,-3.859,-4.176,-1.863,0.120,-0.365,-2.097,0.035,1.005,-0.204,-0.885,-0.305,0.519,100.000,41912.000,1.000
-0.545,-1.800,-3.053,-3.427,-0.855,2.323,1.692,-0.947,0.036,1.004,-0.206,-1.007,-0.336,0.458,100.000,41913.000,1.000
-0.261,-1.142,-2.456,-2.943,0.121,3.933,2.585,-0.905,0.036,0.999,-0.205,-1.160,-0.336,0.427,100.000,41914.000,1.000
-0.552,-0.259,-2.328,-3.187,0.631,4.819,2.255,-2.077,0.036,0.993,-0.209,-1.160,-0.275,0.458,100.000,41915.000,1.000
-1.436,0.462,-2.687,-4.229,0.480,5.199,1.126,-3.928,0.039,0.992,-0.209,-1.129,-0.244,0.366,100.000,41916.000,1.000
-2.690,0.602,-3.332,-5.720,-0.242,5.254,-0.190,-5.666,0.040,0.990,-0.209,-0.977,-0.122,0.183,100.000,41917.000,1.000
-3.902,0.017,-3.892,-6.923,-1.094,5.018,-1.066,-6.551,0.039,0.990,-0.209,-0.824,-0.122,0.183,100.000,41918.000,1.000
-4.618,-0.942,-3.915,-6.925,-1.350,4.568,-1.006,-6.028,0.038,0.990,-0.212,-0.732,-0.031,0.183,100.000,41919.000,1.000
-4.618,-1.668,-3.144,-5.179,-0.448,4.094,0.071,-4.016,0.040,0.992,-0.213,-0.549,0.122,0.000,100.000,41920.000,1.000
-4.133,-1.894,-1.874,-2.103,1.417,3.757,1.728,-1.132,0.042,0.993,-0.209,-0.488,0.275,-0.031,100.000,41921.000,1.000
-3.713,-1.962,-0.872,0.994,3.308,3.652,3.401,1.638,0.043,0.996,-0.209,-0.427,0.366,0.031,100.000,41922.000,1.000
-3.682,-2.344,-0.700,2.860,4.306,3.813,4.750,3.620,0.044,0.993,-0.208,-0.366,0.427,0.031,100.000,41923.000,1.000
-3.800,-3.085,-1.205,3.157,4.091,4.000,5.494,4.702,0.040,0.991,-0.211,-0.244,0.488,-0.061,100.000,41924.000,1.000
-3.576,-3.822,-1.758,2.428,2.900,3.645,5.324,5.061,0.037,0.993,-0.209,-0.122,0.580,-0.244,100.000,41925.000,1.000
-2.734,-4.127,-1.792,1.491,1.255,2.289,4.159,4.853,0.037,0.997,-0.208,0.000,0.610,-0.519,100.000,41926.000,1.000
-1.360,-3.797,-1.214,0.810,-0.376,-0.059,2.084,4.028,0.037,1.002,-0.206,0.061,0.793,-0.580,100.000,41927.000,1.000
0.292,-2.955,-0.362,0.376,-1.766,-2.901,-0.684,2.441,0.036,1.005,-0.204,-0.061,0.824,-0.702,100.000,41928.000,1.000
2.102,-1.849,0.472,0.119,-2.734,-5.298,-3.396,0.283,0.031,1.004,-0.204,-0.214,0.763,-0.732,100.000,41929.000,1.000
4.074,-0.670,1.303,0.186,-2.988,-6.221,-4.798,-1.795,0.030,1.005,-0.204,-0.336,0.763,-0.854,100.000,41930.000,1.000
6.083,0.440,2.278,0.830,-2.331,-5.265,-4.079,-2.974,0.030,1.006,-0.202,-0.488,0.610,-0.977,100.000,41931.000,1.000
7.712,1.321,3.390,2.107,-0.942,-3.136,-1.700,-2.689,0.028,1.005,-0.199,-0.671,0.580,-0.946,100.000,41932.000,1.000
8.292,1.738,4.295,3.561,0.574,-1.201,0.932,-1.080,0.027,1.006,-0.205,-0.702,0.427,-0.885,100.000,41933.000,1.000
7.302,1.525,4.449,4.381,1.534,-0.357,2.627,1.025,0.026,1.005,-0.204,-0.763,0.305,-0.885,100.000,41934.000,1.000
4.841,0.769,3.504,4.018,1.616,-0.431,3.074,2.716,0.027,1.002,-0.203,-0.854,0.122,-0.854,100.000,41935.000,1.000
1.550,-0.294,1.447,2.447,0.851,-0.691,2.525,3.449,0.026,1.002,-0.204,-0.916,0.031,-0.641,100.000,41936.000,1.000
-1.787,-1.471,-1.471,-0.034,-0.640,-0.629,1.329,3.016,0.026,1.001,-0.202,-0.854,-0.214,-0.763,100.000,41937.000,1.000
-4.448,-2.534,-4.693,-2.934,-2.615,-0.244,-0.188,1.497,0.026,1.001,-0.202,-0.885,-0.305,-0.702,100.000,41938.000,1.000
-5.951,-3.181,-7.389,-5.629,-4.582,0.198,-1.693,-0.645,0.025,1.003,-0.202,-0.885,-0.488,-0.519,100.000,41939.000,1.000
-6.189,-3.221,-8.787,-7.542,-5.935,0.488,-2.875,-2.696,0.027,1.003,-0.202,-0.854,-0.702,-0.275,100.000,41940.000,1.000
-5.284,-2.686,-8.490,-8.288,-6.248,0.524,-3.547,-4.078,0.028,1.003,-0.199,-0.946,-0.854,-0.122,100.000,41941.000,1.000
-3.374,-1.728,-6.576,-7.718,-5.446,0.251,-3.636,-4.605,0.027,1.001,-0.199,-1.068,-0.854,0.031,100.000,41942.000,1.000
-0.778,-0.560,-3.615,-6.057,-3.828,-0.269,-3.145,-4.476,0.029,1.001,-0.199,-1.038,-0.977,0.183,100.000,41943.000,1.000
1.748,0.567,-0.570,-3.999,-1.971,-0.806,-2.276,-4.132,0.029,1.000,-0.199,-1.160,-1.007,0.244,100.000,41944.000,1.000
3.284,1.420,1.579,-2.408,-0.495,-1.070,-1.432,-3.973,0.030,0.999,-0.198,-1.129,-1.129,0.244,100.000,41945.000,1.000
3.263,1.806,2.242,-1.860,0.160,-0.905,-0.927,-4.132,0.030,1.001,-0.199,-1.190,-1.221,0.366,100.000,41946.000,1.000
1.676,1.585,1.370,-2.422,-0.126,-0.310,-0.743,-4.486,0.030,1.000,-0.200,-1.129,-1.190,0.275,100.000,41947.000,1.000
-0.980,0.783,-0.531,-3.665,-1.037,0.635,-0.570,-4.757,0.032,0.998,-0.199,-1.190,-1.190,0.153,100.000,41948.000,1.000
-3.885,-0.363,-2.574,-4.849,-1.914,1.728,-0.167,-4.611,0.032,0.994,-0.199,-1.221,-1.251,0.275,100.000,41949.000,1.000
-6.172,-1.463,-3.854,-5.289,-2.096,2.603,0.330,-3.808,0.033,0.993,-0.199,-1.160,-1.221,0.275,100.000,41950.000,1.000
-7.215,-2.029,-3.826,-4.700,-1.280,2.890,0.573,-2.388,0.037,0.991,-0.199,-1.129,-1.160,0.153,100.000,41951.000,1.000
-6.873,-1.693,-2.500,-3.315,0.298,2.422,0.354,-0.724,0.037,0.991,-0.203,-0.946,-1.007,0.275,100.000,41952.000,1.000
-5.450,-0.456,-0.349,-1.662,2.014,1.346,-0.197,0.746,0.040,0.990,-0.205,-0.885,-0.824,0.214,100.000,41953.000,1.000
-3.406,1.279,1.967,-0.216,3.244,0.028,-0.694,1.792,0.042,0.990,-0.204,-0.732,-0.702,0.153,100.000,41954.000,1.000
-1.282,2.823,3.747,0.676,3.597,-1.199,-0.845,2.295,0.041,0.990,-0.201,-0.641,-0.580,0.183,100.000,41955.000,1.000
0.291,3.530,4.455,0.843,3.066,-2.073,-0.630,2.167,0.041,0.986,-0.202,-0.488,-0.397,0.092,100.000,41956.000,1.000
0.966,3.300,4.130,0.561,2.187,-2.245,-0.082,1.634,0.041,0.988,-0.204,-0.305,-0.305,0.031,100.000,41957.000,1.000
0.925,2.641,3.384,0.487,1.795,-1.344,0.942,1.287,0.039,0.991,-0.204,0.031,0.031,0.061,100.000,41958.000,1.000
0.537,2.162,2.839,1.073,2.362,0.649,2.600,1.621,0.039,0.993,-0.204,0.122,0.214,0.153,100.000,41959.000,1.000
-0.002,2.099,2.688,2.193,3.587,3.035,4.572,2.518,0.039,0.993,-0.206,0.153,0.366,0.122,100.000,41960.000,1.000
-0.596,2.333,2.789,3.374,4.672,4.586,5.911,3.278,0.039,0.994,-0.201,0.183,0.549,0.122,100.000,41961.000,1.000
-1.007,2.693,3.029,4.275,5.003,4.403,5.730,3.281,0.037,0.994,-0.202,0.214,0.702,0.122,100.000,41962.000,1.000
-0.946,3.129,3.454,4.896,4.587,2.630,4.009,2.570,0.037,0.993,-0.205,0.427,0.824,0.000,100.000,41963.000,1.000
-0.341,3.618,4.090,5.403,3.861,0.235,1.612,1.693,0.039,0.995,-0.204,0.458,0.854,-0.031,100.000,41964.000,1.000
0.519,4.002,4.741,5.830,3.218,-1.716,-0.334,1.149,0.038,0.994,-0.208,0.580,0.854,-0.031,100.000,41965.000,1.000
1.145,4.061,5.066,6.006,2.803,-2.532,-1.036,1.225,0.037,0.996,-0.206,0.610,1.007,-0.061,100.000,41966.000,1.000
1.235,3.788,4.910,5.789,2.702,-2.036,-0.300,2.152,0.037,0.998,-0.205,0.641,1.099,-0.122,100.000,41967.000,1.000
0.966,3.468,4.484,5.224,2.977,-0.650,1.387,3.872,0.035,0.998,-0.205,0.580,1.068,-0.061,100.000,41968.000,1.000
0.875,3.409,4.162,4.445,3.476,0.771,3.147,5.760,0.035,0.999,-0.206,0.580,1.099,-0.031,100.000,41969.000,1.000
1.403,3.657,4.154,3.539,3.867,1.547,4.383,7.003,0.033,0.999,-0.206,0.519,1.160,0.031,100.000,41970.000,1.000
2.427,4.005,4.349,2.506,3.923,1.621,5.043,7.090,0.032,1.001,-0.209,0.488,1.007,0.061,100.000,41971.000,1.000
3.261,4.205,4.445,1.309,3.657,1.317,5.197,5.923,0.033,1.001,-0.209,0.397,1.099,-0.061,100.000,41972.000,1.000
3.211,4.143,4.212,0.045,3.206,0.814,4.720,3.813,0.031,1.004,-0.209,0.397,1.068,0.000,100.000,41973.000,1.000
2.038,3.813,3.587,-1.093,2.616,-0.005,3.457,1.333,0.033,1.004,-0.208,0.244,0.977,0.061,100.000,41974.000,1.000
-0.007,3.287,2.635,-1.986,1.850,-1.163,1.583,-0.970,0.030,1.004,-0.208,0.214,0.916,-0.031,100.000,41975.000,1.000
-2.225,2.753,1.579,-2.563,1.021,-2.167,-0.195,-2.665,0.031,1.006,-0.207,0.122,0.793,0.000,100.000,41976.000,1.000
-3.802,2.337,0.634,-2.818,0.314,-2.288,-0.974,-3.553,0.028,1.005,-0.204,-0.061,0.732,0.092,100.000,41977.000,1.000
-4.375,1.892,-0.243,-2.945,-0.307,-1.325,-0.344,-3.810,0.028,1.005,-0.205,-0.336,0.641,0.000,100.000,41978.000,1.000
-4.140,1.182,-1.210,-3.165,-1.036,0.075,1.222,-3.720,0.029,1.001,-0.207,-0.549,0.458,-0.061,100.000,41979.000,1.000
-3.527,0.132,-2.294,-3.561,-2.037,0.836,2.539,-3.463,0.031,1.003,-0.209,-0.519,0.336,0.031,100.000,41980.000,1.000
-2.907,-1.185,-3.433,-4.187,-3.409,0.267,2.353,-3.376,0.033,1.006,-0.207,-0.580,0.336,0.061,100.000,41981.000,1.000
-2.432,-2.583,-4.518,-5.041,-5.085,-1.452,0.212,-3.927,0.033,1.008,-0.210,-0.732,0.214,0.153,100.000,41982.000,1.000
-1.999,-3.812,-5.350,-5.869,-6.703,-3.490,-3.117,-5.088,0.031,1.008,-0.208,-0.977,0.153,0.244,100.000,41983.000,1.000
-1.488,-4.751,-5.790,-6.310,-7.784,-4.980,-6.121,-6.141,0.031,1.004,-0.207,-1.221,0.092,0.275,100.000,41984.000,1.000
-1.019,-5.542,-5.965,-6.247,-8.093,-5.476,-7.485,-6.328,0.032,1.001,-0.209,-1.312,-0.061,0.214,100.000,41985.000,1.000
-0.888,-6.412,-6.153,-5.813,-7.727,-5.025,-6.728,-5.360,0.036,0.998,-0.209,-1.434,-0.092,0.305,100.000,41986.000,1.000
-1.261,-7.362,-6.456,-5.086,-6.891,-4.005,-4.266,-3.262,0.035,0.995,-0.209,-1.404,-0.183,0.275,100.000,41987.000,1.000
-2.036,-8.135,-6.767,-4.045,-5.780,-2.953,-1.198,-0.351,0.035,0.997,-0.207,-1.343,-0.244,0.305,100.000,41988.000,1.000
-3.006,-8.489,-7.022,-2.828,-4.676,-2.342,1.155,2.480,0.036,0.997,-0.206,-1.282,-0.244,0.305,100.000,41989.000,1.000
-3.896,-8.375,-7.229,-1.756,-3.907,-2.368,1.963,4.100,0.034,0.996,-0.207,-1.282,-0.183,0.275,100.000,41990.000,1.000
-4.248,-7.841,-7.229,-0.992,-3.591,-2.898,1.335,4.021,0.032,0.995,-0.208,-1.282,-0.214,0.183,100.000,41991.000,1.000
-3.682,-7.035,-6.807,-0.518,-3.620,-3.615,-0.009,2.634,0.032,0.995,-0.212,-1.282,-0.244,0.092,100.000,41992.000,1.000
-2.308,-6.255,-6.049,-0.350,-3.846,-4.217,-1.397,0.771,0.032,0.994,-0.211,-1.190,-0.366,0.061,100.000,41993.000,1.000
-0.576,-5.646,-5.218,-0.417,-4.010,-4.424,-2.426,-0.642,0.034,0.992,-0.210,-1.129,-0.427,-0.122,100.000,41994.000,1.000
1.206,-4.913,-4.336,-0.341,-3.608,-3.902,-2.739,-0.767,0.034,0.991,-0.209,-1.007,-0.275,-0.244,100.000,41995.000,1.000
2.957,-3.656,-3.192,0.299,-2.216,-2.428,-1.998,0.790,0.034,0.991,-0.207,-0.824,-0.366,-0.305,100.000,41996.000,1.000
4.490,-1.956,-1.783,1.505,-0.032,-0.272,-0.351,3.609,0.035,0.992,-0.207,-0.732,-0.397,-0.427,100.000,41997.000,1.000
5.358,-0.402,-0.461,2.845,2.118,1.779,1.376,6.555,0.034,0.992,-0.209,-0.732,-0.366,-0.366,100.000,41998.000,1.000
5.214,0.499,0.438,3.924,3.462,3.037,2.393,8.505,0.034,0.993,-0.206,-0.671,-0.366,-0.427,100.000,41999.000,1.000
4.204,0.762,0.985,4.761,3.909,3.513,2.724,9.116,0.032,0.994,-0.205,-0.580,-0.397,-0.458,100.000,42000.000,1.000
2.883,0.804,1.549,5.646,3.958,3.758,2.970,8.876,0.032,0.993,-0.205,-0.702,-0.458,-0.488,100.000,42001.000,1.000
1.765,0.985,2.322,6.645,4.075,4.184,3.447,8.384,0.032,0.995,-0.206,-0.519,-0.458,-0.488,100.000,42002.000,1.000
1.037,1.343,3.034,7.378,4.264,4.719,3.828,7.621,0.033,0.997,-0.207,-0.458,-0.336,-0.336,100.000,42003.000,1.000
0.658,1.725,3.239,7.374,4.221,5.043,3.568,6.095,0.034,1.000,-0.204,-0.488,-0.397,-0.488,100.000,42004.000,1.000
0.529,1.994,2.759,6.502,3.699,4.825,2.427,3.570,0.035,1.000,-0.204,-0.519,-0.397,-0.366,100.000,42005.000,1.000
0.583,2.092,1.799,5.040,2.696,3.785,0.603,0.429,0.034,1.000,-0.206,-0.458,-0.458,-0.061,100.000,42006.000,1.000
0.888,2.073,0.849,3.557,1.525,1.970,-1.282,-2.389,0.036,0.999,-0.205,-0.580,-0.366,-0.183,100.000,42007.000,1.000
1.670,2.115,0.541,2.743,0.798,0.084,-2.278,-3.714,0.033,0.999,-0.205,-0.549,-0.244,0.000,100.000,42008.000,1.000
3.147,2.455,1.371,3.096,1.103,-0.826,-1.710,-2.956,0.034,0.998,-0.208,-0.671,-0.275,0.000,100.000,42009.000,1.000
5.289,3.249,3.356,4.604,2.593,-0.200,0.236,-0.716,0.035,0.999,-0.208,-0.610,-0.275,-0.092,100.000,42010.000,1.000
7.694,4.473,5.954,6.772,4.903,1.695,2.824,1.721,0.034,0.998,-0.206,-0.702,-0.275,0.031,100.000,42011.000,1.000
9.650,5.878,8.294,8.847,7.312,4.107,5.253,3.205,0.033,1.001,-0.203,-0.702,-0.275,0.000,100.000,42012.000,1.000
10.331,6.921,9.451,9.931,8.830,5.945,6.540,3.014,0.033,1.000,-0.202,-0.763,-0.214,-0.092,100.000,42013.000,1.000
9.166,6.896,8.781,9.243,8.472,5.921,5.647,1.032,0.035,1.001,-0.205,-0.793,-0.244,-0.092,100.000,42014.000,1.000
6.328,5.473,6.376,6.690,5.962,3.404,2.350,-1.956,0.038,1.000,-0.202,-0.885,-0.183,-0.061,100.000,42015.000,1.000
2.888,3.145,3.212,3.182,2.149,-0.903,-2.234,-4.509,0.038,0.998,-0.203,-0.824,-0.092,-0.122,100.000,42016.000,1.000
0.237,0.972,0.629,0.098,-1.480,-5.394,-6.213,-5.509,0.037,0.998,-0.205,-0.946,-0.061,-0.092,100.000,42017.000,1.000
-0.726,-0.081,-0.427,-1.555,-3.644,-8.394,-7.977,-4.808,0.036,0.999,-0.205,-0.916,0.061,0.000,100.000,42018.000,1.000
0.066,0.395,0.250,-1.524,-3.752,-8.763,-6.943,-2.972,0.035,0.999,-0.206,-0.885,0.153,0.061,100.000,42019.000,1.000
1.988,2.060,2.134,-0.277,-2.106,-6.446,-3.757,-0.898,0.033,0.998,-0.204,-0.824,0.183,0.092,100.000,42020.000,1.000
4.110,3.953,4.226,1.293,0.239,-2.612,0.090,0.463,0.034,0.998,-0.203,-0.854,0.153,-0.031,100.000,42021.000,1.000
5.811,5.226,5.729,2.504,2.233,1.157,3.086,0.676,0.033,0.999,-0.201,-0.793,0.122,-0.122,100.000,42022.000,1.000
7.138,5.858,6.657,3.357,3.584,3.882,4.432,0.229,0.033,0.998,-0.201,-0.793,0.061,-0.061,100.000,42023.000,1.000
8.330,6.408,7.502,4.210,4.613,5.382,4.263,0.049,0.033,0.998,-0.199,-0.793,0.092,-0.122,100.000,42024.000,1.000
9.180,7.179,8.409,5.092,5.530,5.880,3.277,0.614,0.033,0.996,-0.201,-0.793,0.061,-0.122,100.000,42025.000,1.000
9.096,7.877,8.909,5.541,6.080,5.662,2.097,1.655,0.032,0.994,-0.204,-0.610,0.061,0.031,100.000,42026.000,1.000
7.549,7.782,8.249,4.877,5.679,4.822,0.877,2.390,0.032,0.994,-0.201,-0.549,-0.031,0.000,100.000,42027.000,1.000
4.401,6.205,5.881,2.613,3.805,3.263,-0.573,1.966,0.030,0.994,-0.202,-0.641,0.000,-0.031,100.000,42028.000,1.000
0.200,3.158,2.012,-1.036,0.533,1.112,-2.400,0.027,0.030,0.994,-0.205,-0.580,-0.031,-0.092,100.000,42029.000,1.000
-3.808,-0.338,-2.196,-4.944,-3.235,-1.021,-4.479,-2.933,0.032,0.995,-0.206,-0.519,0.031,0.031,100.000,42030.000,1.000
-6.232,-2.869,-5.169,-7.584,-6.202,-2.468,-6.462,-5.745,0.030,0.993,-0.208,-0.397,-0.061,0.000,100.000,42031.000,1.000
-6.428,-3.672,-5.950,-8.016,-7.477,-3.081,-7.863,-7.276,0.030,0.995,-0.205,-0.214,-0.092,-0.061,100.000,42032.000,1.000
-5.011,-3.140,-4.872,-6.582,-7.102,-3.211,-8.167,-7.207,0.029,0.995,-0.201,-0.122,-0.153,0.061,100.000,42033.000,1.000
-3.390,-2.411,-3.253,-4.660,-5.912,-3.224,-7.140,-6.122,0.031,0.995,-0.203,-0.031,-0.153,-0.092,100.000,42034.000,1.000
-2.723,-2.429,-2.361,-3.648,-4.871,-3.214,-5.164,-4.914,0.030,0.995,-0.202,0.092,-0.366,-0.183,100.000,42035.000,1.000
-3.242,-3.324,-2.616,-4.106,-4.484,-3.129,-3.132,-4.299,0.031,0.995,-0.205,0.122,-0.336,-0.061,100.000,42036.000,1.000
-4.425,-4.518,-3.592,-5.634,-4.692,-2.945,-1.893,-4.586,0.030,0.995,-0.206,0.092,-0.366,-0.031,100.000,42037.000,1.000
-5.505,-5.219,-4.475,-7.274,-4.990,-2.588,-1.669,-5.466,0.030,0.998,-0.206,0.183,-0.458,-0.031,100.000,42038.000,1.000
-5.887,-4.866,-4.564,-8.058,-4.693,-1.892,-2.014,-6.118,0.031,0.999,-0.207,0.122,-0.549,-0.122,100.000,42039.000,1.000
-5.463,-3.474,-3.701,-7.528,-3.429,-0.790,-2.290,-5.798,0.031,0.998,-0.208,0.061,-0.610,-0.061,100.000,42040.000,1.000
-4.732,-1.693,-2.411,-5.984,-1.502,0.539,-2.055,-4.347,0.031,0.998,-0.205,0.122,-0.702,0.000,100.000,42041.000,1.000
-4.431,-0.412,-1.543,-4.275,0.317,1.913,-1.133,-2.197,0.031,0.996,-0.206,0.061,-0.732,-0.183,100.000,42042.000,1.000
-4.924,-0.221,-1.676,-3.206,1.345,3.239,0.313,-0.030,0.030,0.999,-0.208,0.061,-0.763,0.000,100.000,42043.000,1.000
-5.998,-1.193,-2.840,-3.094,1.274,4.119,1.664,1.518,0.033,0.999,-0.207,-0.031,-0.702,-0.031,100.000,42044.000,1.000
-7.264,-3.052,-4.758,-3.912,0.060,3.747,2.046,1.896,0.033,0.999,-0.208,-0.092,-0.671,-0.061,100.000,42045.000,1.000
-8.542,-5.347,-7.071,-5.498,-2.070,1.688,0.917,0.819,0.033,1.001,-0.206,-0.244,-0.671,-0.153,100.000,42046.000,1.000
-9.629,-7.431,-9.197,-7.335,-4.405,-1.389,-1.341,-1.235,0.034,1.000,-0.206,-0.305,-0.671,-0.183,100.000,42047.000,1.000
-10.020,-8.640,-10.363,-8.519,-5.964,-4.055,-3.441,-3.081,0.032,0.999,-0.206,-0.305,-0.702,-0.214,100.000,42048.000,1.000
-9.243,-8.734,-10.106,-8.358,-6.208,-5.147,-4.088,-3.777,0.034,1.002,-0.208,-0.488,-0.763,-0.244,100.000,42049.000,1.000
-7.332,-7.989,-8.609,-6.856,-5.394,-4.468,-3.034,-3.362,0.034,1.001,-0.205,-0.702,-0.580,-0.305,100.000,42050.000,1.000
-4.747,-6.787,-6.431,-4.504,-4.204,-2.741,-1.228,-2.609,0.032,0.999,-0.206,-0.671,-0.610,-0.427,100.000,42051.000,1.000
-2.005,-5.306,-4.063,-1.850,-3.204,-1.100,0.027,-2.233,0.035,1.001,-0.204,-0.793,-0.641,-0.397,100.000,42052.000,1.000
0.501,-3.638,-1.803,0.663,-2.628,-0.402,0.083,-2.361,0.035,1.002,-0.204,-0.916,-0.549,-0.427,100.000,42053.000,1.000
2.474,-1.927,0.141,2.720,-2.363,-0.704,-0.690,-2.550,0.033,1.002,-0.206,-1.007,-0.488,-0.458,100.000,42054.000,1.000
3.671,-0.354,1.589,4.147,-2.032,-1.327,-1.398,-2.308,0.034,1.001,-0.210,-1.007,-0.488,-0.305,100.000,42055.000,1.000
3.873,0.864,2.375,4.798,-1.312,-1.416,-1.425,-1.611,0.035,1.000,-0.208,-1.160,-0.397,-0.305,100.000,42056.000,1.000
2.912,1.395,2.383,4.503,-0.260,-0.533,-0.689,-0.839,0.034,0.999,-0.204,-1.251,-0.214,-0.427,100.000,42057.000,1.000
0.819,0.942,1.660,3.248,0.700,1.076,0.536,-0.351,0.031,0.999,-0.204,-1.160,-0.244,-0.458,100.000,42058.000,1.000
-1.842,-0.339,0.580,1.460,1.174,2.736,1.667,-0.176,0.032,0.997,-0.205,-1.221,-0.244,-0.488,100.000,42059.000,1.000
-3.985,-1.699,-0.195,-0.007,1.193,3.860,2.076,0.052,0.034,0.997,-0.206,-1.251,-0.275,-0.366,100.000,42060.000,1.000
-4.704,-2.298,-0.140,-0.440,1.130,4.270,1.661,0.731,0.033,0.998,-0.202,-1.221,-0.244,-0.336,100.000,42061.000,1.000
-3.965,-1.748,0.734,0.200,1.357,4.282,0.941,1.812,0.030,0.998,-0.203,-1.312,-0.092,-0.336,100.000,42062.000,1.000
-2.428,-0.180,2.027,1.377,2.055,4.491,0.541,2.905,0.031,0.996,-0.206,-1.129,0.031,-0.336,100.000,42063.000,1.000
-0.782,1.926,3.367,2.496,3.166,5.156,0.739,3.717,0.031,0.996,-0.206,-1.099,0.000,-0.244,100.000,42064.000,1.000
0.645,3.900,4.600,3.254,4.395,5.754,1.388,4.244,0.032,0.995,-0.205,-1.099,0.061,-0.366,100.000,42065.000,1.000
1.825,5.114,5.669,3.650,5.342,5.429,2.053,4.629,0.035,0.995,-0.203,-1.007,0.183,-0.244,100.000,42066.000,1.000
2.768,5.248,6.401,3.757,5.649,3.846,2.287,4.906,0.034,0.994,-0.204,-0.916,0.183,-0.122,100.000,42067.000,1.000
3.362,4.418,6.499,3.539,5.133,1.498,1.923,4.895,0.033,0.994,-0.201,-0.885,0.244,-0.092,100.000,42068.000,1.000
3.484,3.098,5.825,2.953,3.945,-0.656,1.163,4.479,0.033,0.996,-0.201,-0.793,0.244,-0.061,100.000,42069.000,1.000
3.189,1.780,4.546,2.080,2.471,-1.886,0.412,3.825,0.033,0.996,-0.203,-0.763,0.305,0.031,100.000,42070.000,1.000
2.696,0.665,2.953,1.032,0.980,-2.252,-0.132,3.122,0.033,0.998,-0.201,-0.732,0.336,0.061,100.000,42071.000,1.000
2.299,-0.247,1.313,-0.054,-0.505,-2.504,-0.755,2.242,0.032,0.998,-0.203,-0.610,0.366,0.061,100.000,42072.000,1.000
2.261,-0.893,-0.073,-0.894,-1.944,-3.282,-1.793,1.022,0.031,0.996,-0.208,-0.519,0.427,-0.031,100.000,42073.000,1.000
2.650,-1.135,-0.930,-1.144,-3.074,-4.381,-2.886,-0.271,0.032,0.997,-0.206,-0.488,0.458,-0.031,100.000,42074.000,1.000
3.234,-0.974,-1.231,-0.717,-3.578,-4.893,-3.028,-1.062,0.031,0.998,-0.207,-0.519,0.427,0.061,100.000,42075.000,1.000
3.676,-0.596,-1.213,0.104,-3.378,-4.133,-1.578,-0.929,0.031,0.998,-0.204,-0.427,0.458,0.122,100.000,42076.000,1.000
3.871,-0.138,-1.080,0.948,-2.641,-2.345,0.988,0.214,0.031,0.997,-0.202,-0.397,0.519,0.336,100.000,42077.000,1.000
3.961,0.420,-0.841,1.599,-1.602,-0.515,3.390,2.119,0.032,0.997,-0.203,-0.488,0.549,0.031,100.000,42078.000,1.000
3.966,1.015,-0.551,1.881,-0.546,0.407,4.489,4.189,0.029,0.998,-0.204,-0.488,0.519,0.214,100.000,42079.000,1.000
3.499,1.222,-0.577,1.517,0.089,0.142,3.980,5.618,0.030,0.999,-0.205,-0.488,0.549,0.244,100.000,42080.000,1.000
1.956,0.433,-1.449,0.267,-0.185,-0.911,2.314,5.705,0.031,1.000,-0.205,-0.580,0.641,0.275,100.000,42081.000,1.000
-0.891,-1.533,-3.343,-1.745,-1.513,-2.053,0.193,4.215,0.030,1.001,-0.205,-0.580,0.641,0.366,100.000,42082.000,1.000
-4.349,-3.994,-5.641,-3.764,-3.333,-2.600,-1.606,1.690,0.033,1.001,-0.203,-0.610,0.610,0.427,100.000,42083.000,1.000
-7.026,-5.732,-7.145,-4.674,-4.583,-2.216,-2.305,-0.689,0.032,1.001,-0.203,-0.702,0.641,0.214,100.000,42084.000,1.000
-7.917,-5.992,-7.031,-3.884,-4.540,-1.277,-1.690,-1.903,0.032,1.001,-0.202,-0.793,0.488,0.214,100.000,42085.000,1.000
-7.182,-5.079,-5.583,-1.932,-3.415,-0.673,-0.450,-1.810,0.032,1.001,-0.204,-0.793,0.580,0.336,100.000,42086.000,1.000
-5.789,-3.947,-3.883,0.011,-2.042,-1.043,0.463,-0.992,0.033,1.002,-0.201,-0.793,0.580,0.336,100.000,42087.000,1.000
-4.543,-3.306,-2.849,1.159,-1.052,-2.223,0.716,-0.095,0.033,1.002,-0.201,-0.885,0.488,0.397,100.000,42088.000,1.000
-3.550,-3.115,-2.585,1.583,-0.395,-3.368,0.748,0.657,0.032,1.002,-0.202,-0.946,0.397,0.366,100.000,42089.000,1.000
-2.484,-2.772,-2.525,1.897,0.467,-3.510,1.235,1.562,0.032,1.003,-0.204,-0.977,0.458,0.427,100.000,42090.000,1.000
-0.965,-1.585,-1.899,2.801,2.118,-2.094,2.640,3.151,0.031,1.002,-0.201,-0.977,0.427,0.336,100.000,42091.000,1.000
1.260,0.826,-0.121,4.742,4.866,0.809,5.101,5.668,0.030,1.001,-0.200,-1.068,0.458,0.366,100.000,42092.000,1.000
3.985,4.164,2.744,7.437,8.336,4.368,8.095,8.585,0.030,0.999,-0.199,-0.946,0.397,0.427,100.000,42093.000,1.000
6.357,7.395,5.771,9.730,11.335,7.096,10.231,10.720,0.030,0.998,-0.203,-1.007,0.427,0.427,100.000,42094.000,1.000
7.497,9.474,7.888,10.505,12.666,7.786,10.253,11.157,0.031,0.998,-0.200,-0.946,0.366,0.366,100.000,42095.000,1.000
7.414,10.233,8.895,9.816,12.249,6.532,8.304,10.125,0.032,1.000,-0.203,-0.946,0.214,0.397,100.000,42096.000,1.000
6.939,10.274,9.467,8.786,11.093,4.483,5.704,8.733,0.031,0.998,-0.203,-0.885,0.183,0.244,100.000,42097.000,1.000
6.738,10.050,10.155,8.378,10.150,2.725,3.666,7.795,0.031,0.997,-0.203,-0.793,0.122,0.275,100.000,42098.000,1.000
6.689,9.449,10.760,8.503,9.512,1.626,2.446,7.028,0.032,0.997,-0.203,-0.793,0.153,0.275,100.000,42099.000,1.000
6.316,8.316,10.795,8.428,8.778,1.047,1.594,5.605,0.032,0.996,-0.204,-0.824,0.061,0.153,100.000,42100.000,1.000
5.534,6.986,10.221,7.758,7.827,0.824,0.760,3.432,0.032,0.998,-0.203,-0.763,0.000,0.153,100.000,42101.000,1.000
4.636,5.990,9.379,6.684,6.858,0.836,0.018,1.344,0.033,0.998,-0.203,-0.702,0.061,0.244,100.000,42102.000,1.000
3.835,5.478,8.469,5.499,5.991,0.926,-0.409,0.103,0.031,0.996,-0.202,-0.580,0.000,0.305,100.000,42103.000,1.000
3.267,5.305,7.554,4.414,5.327,1.190,-0.210,-0.081,0.034,0.996,-0.204,-0.549,-0.031,0.092,100.000,42104.000,1.000
3.118,5.362,6.777,3.612,5.061,1.964,0.890,0.624,0.034,0.996,-0.202,-0.458,-0.061,0.153,100.000,42105.000,1.000
3.325,5.482,6.127,3.032,5.106,3.155,2.544,1.610,0.033,0.998,-0.203,-0.519,0.000,0.031,100.000,42106.000,1.000
3.369,5.285,5.249,2.258,4.896,3.992,3.724,1.988,0.035,0.996,-0.201,-0.336,-0.092,-0.031,100.000,42107.000,1.000
2.618,4.373,3.718,0.820,3.796,3.725,3.588,1.176,0.036,0.996,-0.202,-0.366,0.031,-0.031,100.000,42108.000,1.000
0.747,2.587,1.342,-1.489,1.536,2.276,2.069,-0.899,0.036,0.998,-0.202,-0.275,0.153,0.122,100.000,42109.000,1.000
-2.046,0.077,-1.754,-4.501,-1.656,0.216,-0.263,-3.983,0.036,0.999,-0.202,-0.244,0.153,-0.031,100.000,42110.000,1.000
-4.990,-2.711,-5.086,-7.649,-5.061,-1.619,-2.471,-7.400,0.035,0.997,-0.201,-0.275,0.275,-0.061,100.000,42111.000,1.000
-7.066,-5.188,-7.931,-10.146,-7.722,-2.516,-3.607,-10.051,0.035,0.996,-0.200,-0.275,0.275,-0.031,100.000,42112.000,1.000
-7.675,-6.981,-9.734,-11.414,-9.008,-2.305,-3.357,-11.099,0.036,0.996,-0.201,-0.214,0.275,-0.092,100.000,42113.000,1.000
-7.055,-8.184,-10.482,-11.429,-9.050,-1.554,-2.426,-10.659,0.036,0.994,-0.204,-0.214,0.305,-0.092,100.000,42114.000,1.000
-6.001,-9.122,-10.597,-10.632,-8.582,-1.197,-2.014,-9.619,0.034,0.995,-0.203,-0.275,0.275,-0.183,100.000,42115.000,1.000
-5.364,-9.940,-10.563,-9.683,-8.404,-1.809,-2.839,-8.919,0.034,0.999,-0.202,-0.183,0.366,-0.244,100.000,42116.000,1.000
-5.879,-10.666,-10.843,-9.347,-9.084,-3.345,-4.804,-9.171,0.034,0.998,-0.202,-0.153,0.275,-0.244,100.000,42117.000,1.000
-8.059,-11.472,-11.906,-10.264,-10.865,-5.452,-7.382,-10.549,0.034,0.998,-0.203,-0.122,0.305,-0.214,100.000,42118.000,1.000
-11.784,-12.566,-13.930,-12.495,-13.520,-7.781,-9.930,-12.642,0.032,0.999,-0.200,-0.092,0.305,-0.397,100.000,42119.000,1.000
-16.051,-13.867,-16.455,-15.331,-16.341,-9.963,-11.748,-14.625,0.033,1.000,-0.201,-0.092,0.275,-0.427,100.000,42120.000,1.000
-19.315,-14.880,-18.456,-17.626,-18.392,-11.521,-12.241,-15.729,0.031,1.000,-0.201,-0.153,0.336,-0.336,100.000,42121.000,1.000
-20.177,-14.853,-18.801,-18.363,-18.882,-12.037,-11.238,-15.528,0.030,0.997,-0.202,-0.153,0.305,-0.336,100.000,42122.000,1.000
-17.873,-13.146,-16.751,-16.948,-17.366,-11.347,-9.061,-13.874,0.032,0.996,-0.204,-0.153,0.275,-0.275,100.000,42123.000,1.000
-12.403,-9.502,-12.177,-13.186,-13.711,-9.410,-6.061,-10.702,0.033,0.996,-0.204,-0.153,0.336,-0.275,100.000,42124.000,1.000
-4.580,-4.240,-5.637,-7.359,-8.131,-6.113,-2.206,-6.088,0.031,0.996,-0.206,-0.122,0.183,-0.214,100.000,42125.000,1.000
3.939,1.531,1.553,-0.529,-1.542,-1.592,2.398,-0.636,0.028,0.999,-0.203,-0.122,0.214,-0.183,100.000,42126.000,1.000
11.093,6.184,7.628,5.591,4.408,3.206,6.640,4.397,0.029,0.998,-0.203,0.000,0.031,-0.122,100.000,42127.000,1.000
15.356,8.550,11.238,9.496,8.136,6.671,8.734,7.667,0.030,0.999,-0.200,-0.031,0.092,-0.061,100.000,42128.000,1.000
16.303,8.570,12.050,10.601,8.990,7.518,7.592,8.413,0.028,1.001,-0.203,-0.092,-0.031,-0.061,100.000,42129.000,1.000
14.481,7.026,10.605,9.266,7.420,5.666,3.654,6.774,0.030,1.001,-0.201,-0.031,0.000,0.031,100.000,42130.000,1.000
11.045,4.931,7.943,6.450,4.632,2.258,-1.386,3.726,0.029,1.000,-0.201,-0.122,-0.092,0.183,100.000,42131.000,1.000
7.296,3.089,5.190,3.249,1.998,-1.098,-5.474,0.547,0.030,0.999,-0.202,-0.153,-0.244,0.092,100.000,42132.000,1.000
4.198,1.875,3.128,0.506,0.414,-3.158,-7.098,-1.816,0.032,0.997,-0.202,-0.244,-0.153,0.122,100.000,42133.000,1.000
2.253,1.208,1.942,-1.317,-0.070,-3.487,-5.931,-2.942,0.029,0.999,-0.203,-0.153,-0.153,0.092,100.000,42134.000,1.000
1.527,0.643,1.261,-2.174,-0.196,-2.582,-3.074,-2.975,0.031,1.002,-0.199,-0.183,-0.244,0.000,100.000,42135.000,1.000
1.668,-0.301,0.539,-2.334,-0.807,-1.416,-0.318,-2.477,0.030,1.003,-0.201,-0.214,-0.183,0.122,100.000,42136.000,1.000
2.170,-1.655,-0.387,-2.031,-1.968,-0.554,1.230,-1.913,0.030,1.002,-0.202,-0.366,-0.183,0.122,100.000,42137.000,1.000
2.762,-2.908,-1.175,-1.336,-2.955,0.096,1.612,-1.349,0.033,1.000,-0.202,-0.519,-0.183,0.031,100.000,42138.000,1.000
3.455,-3.392,-1.350,-0.339,-2.981,0.718,1.372,-0.623,0.032,0.995,-0.202,-0.336,-0.244,0.092,100.000,42139.000,1.000
4.323,-2.694,-0.666,0.733,-1.743,1.228,0.963,0.388,0.031,0.991,-0.204,-0.244,-0.183,0.122,100.000,42140.000,1.000
5.263,-0.968,0.678,1.514,0.434,1.403,0.631,1.438,0.031,0.985,-0.209,-0.183,-0.153,0.031,100.000,42141.000,1.000
6.023,1.122,2.155,1.678,2.775,1.198,0.482,1.943,0.032,0.984,-0.212,0.031,-0.244,0.000,100.000,42142.000,1.000
6.368,2.866,3.275,1.188,4.540,0.985,0.685,1.608,0.036,0.988,-0.212,0.397,-0.244,-0.031,100.000,42143.000,1.000
5.995,3.850,3.696,0.217,5.313,1.313,1.488,0.785,0.036,0.994,-0.212,0.519,-0.275,0.092,100.000,42144.000,1.000
4.552,4.001,3.214,-1.027,5.008,2.412,2.895,0.149,0.036,0.997,-0.208,0.671,-0.153,0.122,100.000,42145.000,1.000
2.138,3.577,1.947,-2.208,3.842,4.031,4.386,0.161,0.037,0.999,-0.207,0.732,-0.061,0.275,100.000,42146.000,1.000
-0.463,3.007,0.354,-2.900,2.211,5.592,5.085,0.702,0.035,0.997,-0.210,0.763,0.061,0.397,100.000,42147.000,1.000
-2.298,2.543,-1.070,-2.887,0.491,6.413,4.309,1.222,0.035,0.998,-0.213,0.824,0.183,0.244,100.000,42148.000,1.000
-2.977,2.079,-2.089,-2.340,-1.021,5.999,2.065,1.222,0.035,0.998,-0.210,0.946,0.305,0.092,100.000,42149.000,1.000
-2.866,1.324,-2.752,-1.724,-2.113,4.324,-0.970,0.519,0.031,0.999,-0.208,1.038,0.305,0.244,100.000,42150.000,1.000
-2.539,0.232,-3.124,-1.420,-2.658,1.850,-3.825,-0.686,0.033,1.002,-0.207,0.946,0.336,0.183,100.000,42151.000,1.000
-2.086,-0.706,-2.943,-1.321,-2.519,-0.702,-5.578,-1.790,0.032,1.004,-0.208,0.732,0.427,0.061,100.000,42152.000,1.000
-1.049,-0.702,-1.716,-0.871,-1.512,-2.549,-5.659,-2.139,0.032,1.004,-0.206,0.580,0.458,-0.031,100.000,42153.000,1.000
0.943,0.700,0.722,0.316,0.371,-3.094,-4.183,-1.700,0.033,1.005,-0.208,0.427,0.427,-0.061,100.000,42154.000,1.000
3.609,3.194,3.826,1.947,2.716,-2.227,-1.947,-1.250,0.032,1.007,-0.208,0.275,0.458,-0.183,100.000,42155.000,1.000
6.003,5.805,6.483,3.229,4.727,-0.361,0.055,-1.707,0.032,1.007,-0.209,0.061,0.458,-0.275,100.000,42156.000,1.000
6.929,7.306,7.467,3.352,5.489,1.658,0.986,-3.310,0.031,1.005,-0.210,0.000,0.397,-0.305,100.000,42157.000,1.000
5.537,6.759,5.978,1.848,4.362,2.804,0.302,-5.478,0.033,1.005,-0.208,-0.092,0.458,-0.305,100.000,42158.000,1.000
1.834,4.028,2.139,-1.109,1.415,2.467,-1.894,-7.278,0.031,1.004,-0.209,-0.214,0.366,-0.183,100.000,42159.000,1.000
-3.065,-0.001,-2.821,-4.485,-2.384,0.929,-4.602,-7.845,0.029,1.004,-0.209,-0.244,0.366,-0.183,100.000,42160.000,1.000
-7.273,-3.795,-7.035,-6.721,-5.565,-0.860,-6.385,-6.522,0.031,1.004,-0.209,-0.305,0.397,-0.092,100.000,42161.000,1.000
-9.224,-6.075,-9.093,-6.770,-7.059,-1.939,-6.348,-3.150,0.030,1.005,-0.210,-0.519,0.458,-0.031,100.000,42162.000,1.000
-8.646,-6.484,-8.810,-4.750,-6.780,-1.823,-4.762,1.612,0.031,1.004,-0.207,-0.702,0.519,-0.092,100.000,42163.000,1.000
-6.439,-5.508,-6.949,-1.539,-5.361,-0.586,-2.691,6.570,0.031,1.002,-0.208,-0.854,0.397,0.031,100.000,42164.000,1.000
-3.839,-3.951,-4.475,1.963,-3.504,1.299,-1.096,10.670,0.030,1.005,-0.204,-1.038,0.397,0.153,100.000,42165.000,1.000
-1.711,-2.414,-2.071,5.167,-1.585,3.246,-0.289,13.336,0.030,1.006,-0.201,-1.129,0.488,0.183,100.000,42166.000,1.000
-0.244,-1.013,0.028,7.846,0.386,4.882,0.049,14.397,0.030,1.004,-0.203,-1.312,0.397,0.153,100.000,42167.000,1.000
0.956,0.518,1.928,10.036,2.568,6.220,0.517,14.017,0.030,1.005,-0.201,-1.495,0.153,0.336,100.000,42168.000,1.000
2.435,2.507,3.823,11.785,5.004,7.526,1.494,12.712,0.030,1.004,-0.200,-1.740,0.061,0.336,100.000,42169.000,1.000
4.292,4.969,5.679,12.927,7.408,8.874,2.733,11.131,0.030,1.006,-0.201,-1.923,0.092,0.397,100.000,42170.000,1.000
5.846,7.288,6.976,12.994,9.105,9.756,3.487,9.588,0.030,1.006,-0.200,-2.075,0.061,0.336,100.000,42171.000,1.000
6.036,8.430,6.889,11.465,9.321,9.345,3.188,7.873,0.028,1.002,-0.203,-2.197,0.153,0.366,100.000,42172.000,1.000
4.357,7.672,5.002,8.331,7.753,7.286,1.956,5.645,0.028,0.999,-0.199,-2.411,0.031,0.336,100.000,42173.000,1.000
1.283,5.077,1.739,4.286,4.781,4.016,0.341,2.925,0.028,0.996,-0.199,-2.441,0.092,0.305,100.000,42174.000,1.000
-2.117,1.385,-1.911,0.321,1.216,0.418,-1.131,0.175,0.028,0.993,-0.200,-2.533,0.000,0.275,100.000,42175.000,1.000
-4.651,-2.141,-4.724,-2.568,-1.846,-2.516,-1.951,-1.867,0.029,0.991,-0.201,-2.502,-0.122,0.244,100.000,42176.000,1.000
-5.289,-4.020,-5.494,-3.437,-3.214,-3.937,-1.603,-2.489,0.032,0.990,-0.202,-2.411,-0.122,0.336,100.000,42177.000,1.000
-3.692,-3.383,-3.622,-1.790,-2.232,-3.582,0.011,-1.499,0.031,0.989,-0.202,-2.319,-0.061,0.153,100.000,42178.000,1.000
-0.606,-0.720,0.339,1.895,0.623,-2.067,2.259,0.466,0.036,0.987,-0.205,-2.167,-0.092,0.183,100.000,42179.000,1.000
2.547,2.363,4.885,6.232,3.950,-0.585,4.071,2.249,0.035,0.985,-0.202,-1.953,-0.092,0.214,100.000,42180.000,1.000
4.556,4.219,8.427,9.673,6.304,-0.216,4.551,2.915,0.036,0.986,-0.202,-1.709,-0.061,0.305,100.000,42181.000,1.000
5.005,4.104,10.098,11.313,6.995,-1.338,3.505,2.404,0.037,0.986,-0.200,-1.312,0.153,0.336,100.000,42182.000,1.000
4.241,2.371,10.009,11.218,6.258,-3.376,1.647,1.522,0.036,0.985,-0.200,-1.129,0.214,0.214,100.000,42183.000,1.000
2.998,0.098,8.965,10.187,4.910,-5.093,0.193,1.262,0.037,0.986,-0.201,-0.763,0.244,0.366,100.000,42184.000,1.000
1.929,-1.545,7.911,9.155,3.802,-5.395,0.070,2.094,0.039,0.984,-0.202,-0.519,0.275,0.397,100.000,42185.000,1.000
1.272,-1.905,7.421,8.598,3.351,-4.063,1.306,3.667,0.037,0.987,-0.203,-0.244,0.366,0.580,100.000,42186.000,1.000
0.904,-1.046,7.567,8.395,3.458,-1.820,3.073,5.042,0.038,0.989,-0.204,-0.092,0.458,0.549,100.000,42187.000,1.000
0.716,0.531,8.144,8.131,3.806,0.199,4.335,5.373,0.039,0.991,-0.202,0.092,0.458,0.519,100.000,42188.000,1.000
0.803,2.194,8.865,7.426,4.100,1.087,4.545,4.505,0.037,0.993,-0.202,0.244,0.610,0.458,100.000,42189.000,1.000
1.268,3.372,9.377,6.031,4.099,0.625,3.898,2.957,0.039,0.994,-0.203,0.397,0.671,0.488,100.000,42190.000,1.000
1.967,3.757,9.312,3.856,3.660,-0.620,3.075,1.445,0.038,0.996,-0.200,0.580,0.732,0.427,100.000,42191.000,1.000
2.541,3.430,8.514,1.113,2.829,-1.700,2.743,0.515,0.038,0.997,-0.200,0.671,0.793,0.244,100.000,42192.000,1.000
2.746,2.838,7.267,-1.589,1.910,-1.904,3.163,0.468,0.037,0.999,-0.200,0.763,0.916,0.122,100.000,42193.000,1.000
2.731,2.574,6.197,-3.462,1.337,-1.154,4.088,1.204,0.037,1.000,-0.201,0.793,1.007,0.122,100.000,42194.000,1.000
2.914,3.010,5.815,-3.995,1.342,-0.032,4.935,2.138,0.037,1.003,-0.203,0.763,1.038,0.061,100.000,42195.000,1.000
3.529,3.989,6.097,-3.329,1.715,0.632,5.154,2.525,0.037,1.004,-0.201,0.732,1.038,0.031,100.000,42196.000,1.000
4.313,4.854,6.446,-2.250,1.928,0.342,4.539,1.927,0.035,1.004,-0.202,0.824,1.099,-0.122,100.000,42197.000,1.000
4.772,4.956,6.163,-1.657,1.579,-0.787,3.269,0.406,0.033,1.004,-0.200,0.763,1.068,-0.122,100.000,42198.000,1.000
4.710,4.230,5.026,-1.904,0.744,-2.180,1.769,-1.570,0.033,1.003,-0.200,0.702,1.038,0.031,100.000,42199.000,1.000
4.329,3.179,3.368,-2.739,-0.164,-3.207,0.420,-3.441,0.028,1.002,-0.200,0.580,0.824,-0.031,100.000,42200.000,1.000
3.788,2.226,1.556,-3.829,-0.941,-3.651,-0.771,-4.924,0.029,0.999,-0.205,0.458,0.793,-0.153,100.000,42201.000,1.000
2.882,1.271,-0.385,-5.125,-1.847,-3.831,-2.030,-6.039,0.029,0.997,-0.205,0.519,0.671,-0.214,100.000,42202.000,1.000
1.432,0.062,-2.480,-6.523,-3.129,-4.118,-3.178,-6.690,0.030,1.000,-0.205,0.580,0.580,-0.183,100.000,42203.000,1.000
-0.173,-1.179,-4.320,-7.417,-4.449,-4.445,-3.469,-6.437,0.032,1.004,-0.204,0.488,0.580,-0.092,100.000,42204.000,1.000
-1.196,-1.871,-5.237,-7.022,-5.104,-4.442,-2.358,-5.007,0.032,1.007,-0.207,0.458,0.549,0.031,100.000,42205.000,1.000
-1.253,-1.726,-4.931,-5.162,-4.710,-3.884,-0.222,-2.898,0.031,1.007,-0.207,0.305,0.397,0.000,100.000,42206.000,1.000
-0.607,-1.019,-3.755,-2.522,-3.474,-2.861,1.963,-1.105,0.031,1.003,-0.204,0.275,0.244,0.092,100.000,42207.000,1.000
0.099,-0.278,-2.460,-0.178,-1.971,-1.663,3.467,-0.230,0.029,0.998,-0.205,0.244,0.183,0.092,100.000,42208.000,1.000
0.248,0.064,-1.709,1.062,-0.779,-0.659,4.087,-0.074,0.031,0.996,-0.207,0.244,0.122,0.244,100.000,42209.000,1.000
-0.398,-0.158,-1.731,1.066,-0.181,-0.159,3.928,0.003,0.031,0.996,-0.209,0.275,0.031,0.183,100.000,42210.000,1.000
-1.630,-0.846,-2.336,0.314,-0.074,-0.132,3.288,0.540,0.030,0.995,-0.206,0.397,-0.122,0.122,100.000,42211.000,1.000
-3.151,-1.822,-3.268,-0.629,-0.184,-0.166,2.608,1.624,0.031,0.996,-0.205,0.549,-0.244,0.122,100.000,42212.000,1.000
-4.899,-3.002,-4.490,-1.587,-0.374,0.109,2.281,2.858,0.028,0.996,-0.207,0.427,-0.305,-0.031,100.000,42213.000,1.000
-6.863,-4.274,-6.035,-2.633,-0.590,0.699,2.430,3.716,0.030,0.996,-0.207,0.305,-0.458,-0.122,100.000,42214.000,1.000
-8.699,-5.272,-7.639,-3.605,-0.634,1.446,2.868,3.973,0.030,0.995,-0.206,0.397,-0.519,-0.275,100.000,42215.000,1.000
-9.779,-5.516,-8.743,-4.030,-0.195,2.345,3.410,3.867,0.029,0.994,-0.204,0.488,-0.641,-0.275,100.000,42216.000,1.000
-9.610,-4.769,-8.857,-3.472,0.903,3.502,4.218,4.013,0.030,0.995,-0.207,0.458,-0.580,-0.275,100.000,42217.000,1.000
-8.168,-3.243,-7.922,-1.922,2.498,4.804,5.541,4.859,0.031,0.994,-0.207,0.397,-0.641,-0.366,100.000,42218.000,1.000
-6.065,-1.623,-6.456,0.002,3.933,5.704,7.029,5.984,0.031,0.995,-0.208,0.458,-0.610,-0.610,100.000,42219.000,1.000
-4.261,-0.730,-5.279,1.332,4.336,5.569,7.783,6.373,0.031,0.996,-0.209,0.427,-0.732,-0.671,100.000,42220.000,1.000
-3.392,-0.950,-4.917,1.455,3.283,4.226,7.170,5.484,0.035,0.996,-0.211,0.488,-0.610,-0.549,100.000,42221.000,1.000
-3.464,-2.086,-5.330,0.432,1.053,2.014,5.206,3.554,0.035,0.996,-0.207,0.458,-0.671,-0.488,100.000,42222.000,1.000
-4.118,-3.694,-6.148,-1.268,-1.722,-0.485,2.278,0.952,0.032,0.998,-0.208,0.458,-0.732,-0.549,100.000,42223.000,1.000
-4.893,-5.309,-6.935,-3.056,-4.322,-2.575,-0.952,-2.062,0.030,0.999,-0.207,0.397,-0.580,-0.397,100.000,42224.000,1.000
-5.301,-6.444,-7.290,-4.298,-5.997,-3.619,-3.582,-4.933,0.032,1.001,-0.208,0.244,-0.519,-0.305,100.000,42225.000,1.000
-4.973,-6.655,-6.934,-4.497,-6.190,-3.359,-4.908,-6.859,0.032,1.002,-0.207,0.244,-0.458,-0.275,100.000,42226.000,1.000
-3.847,-5.759,-5.839,-3.614,-4.880,-2.079,-4.839,-7.385,0.031,1.004,-0.207,0.214,-0.519,-0.336,100.000,42227.000,1.000
-2.244,-4.030,-4.317,-2.210,-2.701,-0.484,-3.890,-6.714,0.032,1.004,-0.204,0.031,-0.549,-0.366,100.000,42228.000,1.000
-0.751,-2.169,-2.957,-1.204,-0.682,0.633,-2.876,-5.502,0.034,1.004,-0.205,-0.153,-0.488,-0.244,100.000,42229.000,1.000
0.082,-0.981,-2.356,-1.374,0.227,0.804,-2.516,-4.522,0.031,1.002,-0.206,-0.275,-0.549,-0.244,100.000,42230.000,1.000
0.056,-0.891,-2.807,-2.921,-0.429,0.053,-3.130,-4.432,0.031,1.002,-0.205,-0.366,-0.519,-0.305,100.000,42231.000,1.000
-0.632,-1.701,-4.159,-5.404,-2.423,-1.310,-4.619,-5.524,0.030,1.001,-0.207,-0.458,-0.549,-0.397,100.000,42232.000,1.000
-1.525,-2.745,-5.858,-7.996,-4.974,-2.869,-6.544,-7.575,0.030,1.001,-0.208,-0.488,-0.519,-0.244,100.000,42233.000,1.000
-2.089,-3.263,-7.157,-9.834,-7.085,-4.006,-8.133,-9.937,0.032,1.002,-0.208,-0.580,-0.580,-0.275,100.000,42234.000,1.000
-1.959,-2.789,-7.474,-10.304,-7.911,-4.002,-8.513,-11.749,0.032,1.000,-0.207,-0.641,-0.458,-0.336,100.000,42235.000,1.000
-1.163,-1.400,-6.707,-9.301,-7.140,-2.713,-7.467,-12.268,0.031,0.998,-0.209,-0.702,-0.397,-0.244,100.000,42236.000,1.000
-0.111,0.366,-5.276,-7.314,-5.206,-1.032,-5.958,-11.373,0.033,0.999,-0.205,-0.702,-0.336,-0.275,100.000,42237.000,1.000
0.662,1.892,-3.815,-5.109,-3.011,-0.237,-5.420,-9.674,0.033,0.999,-0.206,-0.671,-0.275,-0.336,100.000,42238.000,1.000
0.760,2.762,-2.839,-3.349,-1.389,-0.874,-6.475,-8.062,0.033,0.998,-0.206,-0.702,-0.305,-0.366,100.000,42239.000,1.000
0.040,2.815,-2.596,-2.512,-0.811,-2.445,-8.530,-7.149,0.033,0.996,-0.208,-0.641,-0.183,-0.336,100.000,42240.000,1.000
-1.343,2.105,-3.066,-2.841,-1.331,-3.866,-10.322,-6.986,0.033,0.998,-0.206,-0.519,-0.244,-0.305,100.000,42241.000,1.000
-3.000,0.843,-4.057,-4.198,-2.667,-4.065,-10.761,-7.276,0.032,0.999,-0.205,-0.549,-0.153,-0.214,100.000,42242.000,1.000
-4.594,-0.719,-5.412,-6.188,-4.452,-2.604,-9.679,-7.878,0.033,0.998,-0.204,-0.580,-0.061,-0.366,100.000,42243.000,1.000
-6.008,-2.329,-7.068,-8.399,-6.419,-0.066,-7.918,-8.860,0.031,0.996,-0.204,-0.519,0.031,-0.275,100.000,42244.000,1.000
-7.192,-3.674,-8.851,-10.362,-8.274,2.335,-6.490,-10.010,0.032,0.997,-0.207,-0.458,0.031,-0.183,100.000,42245.000,1.000
-7.917,-4.367,-10.251,-11.411,-9.495,3.687,-5.653,-10.562,0.031,0.997,-0.207,-0.580,0.061,-0.244,100.000,42246.000,1.000
-7.783,-4.154,-10.575,-10.891,-9.500,3.916,-4.908,-9.677,0.030,0.997,-0.205,-0.549,0.092,-0.244,100.000,42247.000,1.000
-6.530,-3.197,-9.474,-8.688,-8.099,3.564,-3.733,-7.254,0.032,0.998,-0.205,-0.458,0.153,-0.214,100.000,42248.000,1.000
-4.397,-2.059,-7.312,-5.513,-5.730,3.259,-2.049,-4.112,0.029,0.999,-0.204,-0.519,0.122,-0.366,100.000,42249.000,1.000
-2.126,-1.299,-4.920,-2.533,-3.196,3.323,-0.064,-1.358,0.030,0.997,-0.205,-0.519,0.153,-0.336,100.000,42250.000,1.000
-0.481,-1.041,-2.960,-0.601,-1.154,3.634,1.917,0.369,0.029,0.996,-0.203,-0.549,0.214,-0.214,100.000,42251.000,1.000
0.278,-0.925,-1.516,0.334,0.273,3.779,3.478,1.239,0.028,0.996,-0.202,-0.488,0.244,-0.092,100.000,42252.000,1.000
0.408,-0.543,-0.290,1.027,1.428,3.465,4.300,2.052,0.030,0.996,-0.203,-0.519,0.153,-0.122,100.000,42253.000,1.000
0.272,0.092,0.907,2.163,2.680,2.700,4.445,3.594,0.027,0.996,-0.203,-0.610,0.214,-0.031,100.000,42254.000,1.000
0.135,0.628,2.071,3.901,4.104,1.617,4.263,5.997,0.028,0.998,-0.205,-0.519,0.244,-0.122,100.000,42255.000,1.000
0.279,0.870,3.276,5.995,5.503,0.419,4.045,8.651,0.031,0.997,-0.204,-0.580,0.183,-0.275,100.000,42256.000,1.000
1.005,1.000,4.685,8.001,6.570,-0.518,3.891,10.645,0.030,1.000,-0.204,-0.519,0.153,-0.183,100.000,42257.000,1.000
2.423,1.373,6.313,9.460,7.086,-0.755,3.871,11.443,0.028,1.000,-0.205,-0.519,0.244,-0.031,100.000,42258.000,1.000
4.293,2.176,7.899,10.110,7.021,-0.214,4.016,11.270,0.029,0.999,-0.206,-0.610,0.153,0.031,100.000,42259.000,1.000
6.057,3.230,9.004,9.981,6.455,0.598,4.050,10.785,0.028,0.996,-0.204,-0.488,0.183,0.092,100.000,42260.000,1.000
7.108,4.118,9.307,9.331,5.523,1.006,3.543,10.470,0.029,0.998,-0.206,-0.458,0.153,0.153,100.000,42261.000,1.000
7.112,4.487,8.826,8.508,4.416,0.726,2.415,10.411,0.031,0.998,-0.208,-0.458,0.214,0.183,100.000,42262.000,1.000
6.086,4.163,7.793,7.709,3.208,-0.134,0.975,10.384,0.030,0.998,-0.206,-0.488,0.244,0.244,100.000,42263.000,1.000
4.341,3.129,6.441,6.878,1.728,-1.358,-0.390,9.971,0.030,0.998,-0.202,-0.427,0.153,0.397,100.000,42264.000,1.000
2.482,1.605,5.078,5.978,-0.143,-2.712,-1.394,8.838,0.030,1.000,-0.202,-0.488,0.153,0.366,100.000,42265.000,1.000
1.301,0.082,4.169,5.257,-2.109,-3.884,-1.934,7.093,0.031,0.999,-0.203,-0.519,0.214,0.244,100.000,42266.000,1.000
1.358,-0.924,4.095,5.070,-3.584,-4.496,-2.069,5.328,0.032,1.000,-0.208,-0.488,0.183,0.244,100.000,42267.000,1.000
2.636,-1.131,4.889,5.511,-4.106,-4.271,-1.880,4.249,0.031,0.999,-0.209,-0.488,0.275,0.214,100.000,42268.000,1.000
4.676,-0.515,6.338,6.383,-3.555,-3.239,-1.471,4.246,0.031,0.998,-0.207,-0.458,0.244,0.183,100.000,42269.000,1.000
6.874,0.714,8.101,7.322,-2.196,-1.821,-1.085,5.084,0.033,0.997,-0.208,-0.366,0.244,0.122,100.000,42270.000,1.000
8.654,2.127,9.677,7.883,-0.620,-0.696,-0.977,5.934,0.031,0.999,-0.206,-0.397,0.305,0.275,100.000,42271.000,1.000
9.675,3.328,10.615,7.793,0.636,-0.366,-1.096,5.952,0.031,0.999,-0.205,-0.427,0.336,0.092,100.000,42272.000,1.000
9.974,4.271,10.892,7.252,1.561,-0.811,-1.022,5.035,0.030,0.999,-0.205,-0.305,0.336,0.092,100.000,42273.000,1.000
9.819,5.200,10.859,6.757,2.602,-1.584,-0.346,3.851,0.033,0.999,-0.204,-0.397,0.488,0.061,100.000,42274.000,1.000
9.306,6.166,10.693,6.493,4.012,-2.174,0.902,3.046,0.033,0.999,-0.203,-0.336,0.397,-0.092,100.000,42275.000,1.000
8.088,6.691,10.043,6.019,5.406,-2.312,2.283,2.673,0.033,1.000,-0.204,-0.305,0.488,0.000,100.000,42276.000,1.000
5.696,6.079,8.421,4.714,6.094,-2.027,3.332,2.418,0.032,0.998,-0.204,-0.397,0.458,0.061,100.000,42277.000,1.000
2.248,4.080,5.901,2.511,5.744,-1.488,3.842,2.078,0.031,0.996,-0.204,-0.336,0.610,0.092,100.000,42278.000,1.000
-1.304,1.143,3.193,0.052,4.612,-0.883,3.876,1.691,0.032,0.995,-0.203,-0.305,0.519,0.092,100.000,42279.000,1.000
-3.704,-1.778,1.184,-1.750,3.320,-0.320,3.690,1.361,0.033,0.995,-0.205,-0.275,0.580,0.244,100.000,42280.000,1.000
-4.159,-3.602,0.486,-2.198,2.541,0.239,3.619,1.181,0.033,0.997,-0.205,-0.275,0.671,0.214,100.000,42281.000,1.000
-2.824,-3.773,1.098,-1.221,2.589,0.834,3.826,1.201,0.032,0.998,-0.205,-0.183,0.671,0.214,100.000,42282.000,1.000
-0.779,-2.784,2.259,0.431,3.113,1.342,4.068,1.224,0.031,0.997,-0.204,-0.183,0.610,0.092,100.000,42283.000,1.000
0.590,-1.812,2.849,1.598,3.359,1.611,3.865,0.892,0.031,0.998,-0.206,-0.214,0.641,0.000,100.000,42284.000,1.000
0.381,-1.757,2.113,1.545,2.845,1.693,3.107,0.195,0.030,0.997,-0.204,-0.214,0.580,-0.031,100.000,42285.000,1.000
-1.427,-2.711,0.030,0.340,1.684,1.833,2.364,-0.389,0.029,0.997,-0.204,-0.183,0.732,0.122,100.000,42286.000,1.000
-4.126,-4.186,-2.825,-1.453,0.306,2.304,2.394,-0.365,0.029,0.997,-0.202,-0.153,0.641,-0.031,100.000,42287.000,1.000
-6.708,-5.572,-5.578,-3.167,-0.876,3.226,3.409,0.372,0.027,0.997,-0.203,-0.092,0.580,0.092,100.000,42288.000,1.000
-8.327,-6.389,-7.353,-4.214,-1.561,4.375,4.853,1.474,0.028,0.996,-0.203,0.000,0.610,0.183,100.000,42289.000,1.000
-8.548,-6.416,-7.614,-4.253,-1.617,5.171,5.820,2.322,0.029,0.994,-0.206,-0.031,0.610,0.336,100.000,42290.000,1.000
-7.314,-5.706,-6.395,-3.334,-1.107,5.103,5.708,2.410,0.029,0.995,-0.205,0.061,0.549,0.183,100.000,42291.000,1.000
-4.818,-4.450,-4.224,-1.836,-0.200,4.133,4.506,1.675,0.031,0.995,-0.206,0.122,0.519,0.336,100.000,42292.000,1.000
-1.536,-2.848,-1.838,-0.277,0.901,2.622,2.612,0.467,0.029,0.996,-0.205,0.153,0.336,0.275,100.000,42293.000,1.000
1.714,-1.122,0.081,0.837,1.942,1.063,0.620,-0.744,0.027,0.996,-0.205,0.122,0.427,0.244,100.000,42294.000,1.000
4.063,0.441,1.149,1.162,2.659,-0.039,-0.842,-1.621,0.028,0.997,-0.203,0.214,0.275,0.427,100.000,42295.000,1.000
5.129,1.591,1.447,0.676,2.925,-0.316,-1.367,-2.130,0.030,0.996,-0.203,0.214,0.275,0.275,100.000,42296.000,1.000
5.166,2.275,1.425,-0.305,2.790,0.230,-0.982,-2.537,0.028,0.996,-0.205,0.183,0.275,0.305,100.000,42297.000,1.000
4.661,2.704,1.565,-1.324,2.395,1.227,-0.041,-3.120,0.027,0.996,-0.204,0.122,0.183,0.305,100.000,42298.000,1.000
3.961,3.253,2.085,-2.028,1.917,2.263,1.029,-3.860,0.029,0.998,-0.206,0.214,0.061,0.336,100.000,42299.000,1.000
3.168,4.072,2.795,-2.355,1.471,3.074,1.772,-4.564,0.030,0.998,-0.207,0.214,0.092,0.397,100.000,42300.000,1.000
2.160,4.722,3.142,-2.570,0.987,3.446,1.774,-5.158,0.031,0.998,-0.207,0.092,-0.031,0.336,100.000,42301.000,1.000
0.729,4.403,2.504,-3.053,0.269,3.231,0.985,-5.767,0.032,0.999,-0.203,0.061,-0.031,0.427,100.000,42302.000,1.000
-1.189,2.662,0.586,-3.975,-0.779,2.486,-0.168,-6.517,0.031,0.999,-0.207,-0.092,-0.122,0.427,100.000,42303.000,1.000
-3.284,-0.109,-2.230,-5.103,-1.950,1.517,-1.026,-7.131,0.033,0.998,-0.207,-0.122,-0.092,0.366,100.000,42304.000,1.000
-4.891,-2.841,-4.942,-5.892,-2.762,0.762,-1.000,-6.862,0.031,1.000,-0.206,-0.122,-0.092,0.153,100.000,42305.000,1.000
-5.371,-4.395,-6.486,-5.854,-2.764,0.604,0.165,-5.137,0.033,0.999,-0.208,-0.397,0.000,0.153,100.000,42306.000,1.000
-4.514,-4.095,-6.318,-4.799,-1.825,1.170,2.135,-2.169,0.032,0.999,-0.207,-0.305,-0.092,0.214,100.000,42307.000,1.000
-2.624,-2.042,-4.586,-2.884,-0.243,2.119,3.958,1.128,0.034,1.001,-0.206,-0.458,-0.061,0.153,100.000,42308.000,1.000
-0.320,0.877,-1.995,-0.572,1.341,2.757,4.536,3.626,0.035,1.003,-0.207,-0.610,0.000,0.061,100.000,42309.000,1.000
1.734,3.383,0.511,1.499,2.192,2.508,3.299,4.415,0.034,1.003,-0.208,-0.702,0.031,0.153,100.000,42310.000,1.000
3.054,4.431,2.130,2.754,1.809,1.162,0.424,3.187,0.034,1.001,-0.209,-0.763,0.031,0.122,100.000,42311.000,1.000
3.581,3.785,2.593,2.995,0.298,-1.069,-3.209,0.596,0.032,1.002,-0.208,-0.793,0.031,0.092,100.000,42312.000,1.000
3.786,2.185,2.325,2.613,-1.485,-3.417,-6.131,-1.905,0.034,1.002,-0.210,-0.824,0.031,0.092,100.000,42313.000,1.000
4.292,0.820,2.091,2.307,-2.446,-4.811,-7.044,-2.984,0.033,1.001,-0.208,-0.946,0.092,0.031,100.000,42314.000,1.000
5.318,0.567,2.417,2.509,-2.015,-4.596,-5.925,-2.329,0.032,1.001,-0.206,-1.068,0.122,0.061,100.000,42315.000,1.000
6.489,1.591,3.315,3.108,-0.411,-3.002,-4.094,-0.770,0.031,0.998,-0.208,-1.038,0.061,0.031,100.000,42316.000,1.000
7.055,3.276,4.325,3.612,1.603,-0.908,-3.018,0.418,0.030,0.998,-0.208,-1.129,0.061,0.031,100.000,42317.000,1.000
6.370,4.550,4.808,3.536,3.190,0.889,-3.151,0.448,0.031,0.998,-0.208,-1.068,0.153,-0.183,100.000,42318.000,1.000
4.433,4.630,4.397,2.789,3.899,2.123,-3.846,-0.508,0.031,0.998,-0.208,-1.099,0.061,-0.183,100.000,42319.000,1.000
1.891,3.510,3.196,1.718,3.793,2.850,-4.120,-1.602,0.029,0.998,-0.207,-1.129,0.092,-0.183,100.000,42320.000,1.000
-0.536,1.733,1.563,0.748,3.201,3.137,-3.440,-2.000,0.031,0.996,-0.206,-1.068,0.031,-0.092,100.000,42321.000,1.000
-2.475,-0.024,-0.121,0.064,2.494,3.125,-1.937,-1.431,0.031,0.996,-0.205,-1.038,0.092,-0.183,100.000,42322.000,1.000
-3.825,-1.197,-1.520,-0.404,1.986,3.082,-0.102,-0.249,0.032,0.997,-0.207,-0.977,0.031,-0.275,100.000,42323.000,1.000
-4.594,-1.482,-2.395,-0.790,1.864,3.209,1.599,0.926,0.032,0.998,-0.205,-0.977,0.031,-0.153,100.000,42324.000,1.000
-4.877,-0.957,-2.666,-1.127,2.134,3.461,2.909,1.698,0.031,0.996,-0.207,-0.977,0.031,-0.092,100.000,42325.000,1.000
-4.823,-0.019,-2.395,-1.306,2.623,3.585,3.646,2.144,0.031,0.998,-0.207,-0.916,-0.031,-0.153,100.000,42326.000,1.000
-4.475,0.946,-1.687,-1.159,3.085,3.315,3.588,2.573,0.033,0.998,-0.207,-0.946,-0.061,-0.153,100.000,42327.000,1.000
-3.797,1.748,-0.748,-0.698,3.255,2.543,2.582,3.028,0.031,0.998,-0.205,-0.824,-0.092,0.031,100.000,42328.000,1.000
-2.966,2.203,-0.028,-0.272,2.843,1.290,0.755,3.123,0.031,0.996,-0.204,-0.763,-0.061,-0.031,100.000,42329.000,1.000
-2.299,2.112,0.042,-0.194,1.766,-0.223,-1.270,2.596,0.032,0.995,-0.206,-0.671,-0.122,-0.061,100.000,42330.000,1.000
-1.794,1.564,-0.475,-0.221,0.421,-1.456,-2.498,1.847,0.032,0.994,-0.202,-0.549,-0.183,0.000,100.000,42331.000,1.000
-1.111,0.921,-1.078,0.276,-0.577,-1.866,-2.257,1.619,0.035,0.994,-0.205,-0.610,-0.092,-0.061,100.000,42332.000,1.000
-0.087,0.453,-1.344,1.577,-0.943,-1.422,-0.809,2.209,0.032,0.996,-0.203,-0.671,-0.031,0.000,100.000,42333.000,1.000
1.071,0.270,-1.157,3.250,-0.810,-0.570,0.893,3.194,0.033,0.997,-0.203,-0.580,-0.122,-0.061,100.000,42334.000,1.000
2.039,0.475,-0.615,4.489,-0.442,0.262,1.976,3.796,0.034,0.997,-0.205,-0.549,-0.122,-0.122,100.000,42335.000,1.000
2.538,1.088,0.004,4.612,-0.128,0.901,2.026,3.343,0.032,0.996,-0.207,-0.366,-0.031,-0.122,100.000,42336.000,1.000
2.295,1.849,0.260,3.284,-0.268,1.173,0.924,1.524,0.033,0.995,-0.206,-0.549,0.031,-0.244,100.000,42337.000,1.000
1.153,2.268,-0.199,0.639,-1.198,0.739,-1.238,-1.479,0.033,0.997,-0.205,-0.519,-0.061,-0.122,100.000,42338.000,1.000
-0.674,2.015,-1.314,-2.615,-2.792,-0.508,-3.854,-4.943,0.034,0.996,-0.203,-0.427,0.000,-0.092,100.000,42339.000,1.000
-2.688,1.151,-2.669,-5.482,-4.426,-2.089,-5.813,-7.880,0.033,0.997,-0.202,-0.275,0.092,-0.092,100.000,42340.000,1.000
-4.407,-0.007,-3.791,-7.159,-5.431,-3.255,-6.224,-9.533,0.032,0.997,-0.203,-0.336,0.153,-0.061,100.000,42341.000,1.000
-5.354,-0.983,-4.210,-7.152,-5.382,-3.548,-5.039,-9.556,0.034,0.998,-0.203,-0.275,0.061,-0.214,100.000,42342.000,1.000
-5.009,-1.208,-3.462,-5.210,-4.105,-2.985,-2.912,-7.891,0.034,0.998,-0.203,-0.336,0.122,-0.153,100.000,42343.000,1.000
-3.111,-0.355,-1.383,-1.490,-1.736,-1.944,-0.682,-4.728,0.034,0.998,-0.203,-0.305,0.153,-0.122,100.000,42344.000,1.000
0.058,1.404,1.660,3.303,1.238,-0.949,1.051,-0.518,0.033,0.997,-0.206,-0.214,0.092,-0.031,100.000,42345.000,1.000
3.764,3.557,4.911,8.047,4.151,-0.340,2.213,4.020,0.032,0.996,-0.205,-0.092,0.244,0.031,100.000,42346.000,1.000
7.222,5.590,7.615,11.614,6.442,-0.014,3.192,7.945,0.031,0.996,-0.207,-0.122,0.214,0.031,100.000,42347.000,1.000
9.973,7.178,9.354,13.403,7.839,0.330,4.322,10.438,0.030,0.994,-0.210,-0.122,0.244,0.214,100.000,42348.000,1.000
11.816,8.143,10.015,13.493,8.313,0.698,5.438,11.183,0.031,0.997,-0.208,-0.061,0.214,0.305,100.000,42349.000,1.000
12.471,8.266,9.489,12.253,7.837,0.751,5.981,10.273,0.029,0.998,-0.208,-0.061,0.275,0.397,100.000,42350.000,1.000
11.644,7.308,7.625,9.984,6.328,0.144,5.451,7.899,0.029,0.999,-0.204,-0.153,0.183,0.305,100.000,42351.000,1.000
9.482,5.312,4.604,7.028,3.901,-1.234,3.764,4.439,0.028,0.998,-0.203,0.000,0.122,0.153,100.000,42352.000,1.000
6.592,2.725,1.070,3.887,1.005,-3.239,1.302,0.623,0.029,0.996,-0.204,0.000,0.031,0.275,100.000,42353.000,1.000
3.632,0.102,-2.209,1.022,-1.819,-5.482,-1.257,-2.701,0.031,0.996,-0.207,0.092,0.031,0.275,100.000,42354.000,1.000
1.206,-2.107,-4.576,-1.214,-4.069,-7.292,-3.096,-4.830,0.033,0.999,-0.205,0.000,0.061,0.000,100.000,42355.000,1.000
-0.078,-3.503,-5.502,-2.513,-5.252,-7.925,-3.487,-5.370,0.034,1.000,-0.205,0.031,0.031,0.031,100.000,42356.000,1.000
-0.072,-3.865,-4.896,-2.908,-5.203,-7.168,-2.336,-4.594,0.034,1.002,-0.205,-0.092,0.000,0.244,100.000,42357.000,1.000
0.521,-3.444,-3.440,-3.035,-4.479,-5.685,-0.548,-3.482,0.036,1.002,-0.207,-0.122,0.153,0.183,100.000,42358.000,1.000
0.635,-2.912,-2.278,-3.731,-4.102,-4.567,0.413,-3.119,0.036,0.997,-0.204,-0.153,0.000,0.122,100.000,42359.000,1.000
-0.382,-2.961,-2.315,-5.414,-4.851,-4.601,-0.508,-4.076,0.035,0.992,-0.206,-0.122,0.031,0.153,100.000,42360.000,1.000
-2.491,-3.907,-3.706,-7.840,-6.763,-5.790,-3.292,-6.213,0.036,0.990,-0.207,0.031,0.183,0.183,100.000,42361.000,1.000
-5.087,-5.475,-5.795,-10.238,-9.100,-7.319,-6.824,-8.731,0.036,0.989,-0.210,0.183,0.214,0.031,100.000,42362.000,1.000
-7.232,-6.948,-7.481,-11.697,-10.786,-8.038,-9.452,-10.485,0.037,0.990,-0.209,0.244,0.244,0.031,100.000,42363.000,1.000
-8.016,-7.611,-7.865,-11.647,-11.072,-7.234,-9.855,-10.674,0.036,0.992,-0.209,0.427,0.244,0.214,100.000,42364.000,1.000
-7.142,-7.222,-6.828,-10.243,-10.039,-5.079,-7.896,-9.426,0.035,0.996,-0.212,0.488,0.336,0.153,100.000,42365.000,1.000
-5.324,-6.178,-5.139,-8.384,-8.555,-2.512,-4.739,-7.649,0.035,0.997,-0.214,0.519,0.336,0.092,100.000,42366.000,1.000
-3.894,-5.244,-3.895,-7.155,-7.628,-0.645,-1.994,-6.271,0.035,0.999,-0.209,0.519,0.458,0.244,100.000,42367.000,1.000
-3.810,-5.005,-3.721,-7.102,-7.660,-0.045,-0.668,-5.637,0.035,0.999,-0.208,0.580,0.427,0.244,100.000,42368.000,1.000
-5.018,-5.456,-4.408,-7.956,-8.236,-0.421,-0.828,-5.472,0.033,1.001,-0.208,0.610,0.458,0.183,100.000,42369.000,1.000
-6.618,-6.057,-5.226,-8.947,-8.541,-0.994,-1.888,-5.238,0.032,1.000,-0.208,0.580,0.458,0.061,100.000,42370.000,1.000
-7.555,-6.146,-5.513,-9.355,-7.966,-1.054,-2.963,-4.516,0.032,1.002,-0.207,0.519,0.458,0.092,100.000,42371.000,1.000
-7.286,-5.377,-5.063,-8.921,-6.440,-0.270,-3.208,-3.202,0.030,1.004,-0.205,0.366,0.427,0.031,100.000,42372.000,1.000
-6.038,-3.949,-4.149,-7.888,-4.421,1.118,-2.349,-1.625,0.028,1.006,-0.202,0.336,0.458,-0.092,100.000,42373.000,1.000
-4.462,-2.432,-3.213,-6.673,-2.590,2.355,-0.985,-0.419,0.027,1.007,-0.203,0.122,0.397,-0.214,100.000,42374.000,1.000
-3.027,-1.314,-2.478,-5.515,-1.396,2.706,-0.110,-0.054,0.027,1.003,-0.206,-0.153,0.336,-0.336,100.000,42375.000,1.000
-1.803,-0.714,-1.877,-4.439,-0.801,2.083,-0.208,-0.478,0.029,1.004,-0.210,-0.244,0.153,-0.366,100.000,42376.000,1.000
-0.723,-0.489,-1.269,-3.440,-0.419,1.172,-0.884,-1.240,0.028,1.005,-0.207,-0.366,0.153,-0.458,100.000,42377.000,1.000
0.148,-0.527,-0.702,-2.619,0.058,0.788,-1.415,-1.916,0.027,1.003,-0.207,-0.458,0.122,-0.580,100.000,42378.000,1.000
0.647,-0.841,-0.422,-2.147,0.569,1.081,-1.478,-2.350,0.027,1.004,-0.206,-0.549,0.031,-0.671,100.000,42379.000,1.000
0.717,-1.453,-0.587,-2.081,0.858,1.490,-1.160,-2.560,0.027,1.004,-0.206,-0.671,-0.061,-0.702,100.000,42380.000,1.000
0.466,-2.330,-1.074,-2.251,0.774,1.297,-0.621,-2.571,0.027,1.001,-0.206,-0.793,-0.122,-0.580,100.000,42381.000,1.000
0.099,-3.323,-1.549,-2.303,0.424,0.261,-0.020,-2.358,0.028,1.002,-0.205,-0.763,-0.214,-0.702,100.000,42382.000,1.000
-0.065,-4.041,-1.593,-1.794,0.228,-1.048,0.528,-1.872,0.027,1.001,-0.204,-0.824,-0.336,-0.458,100.000,42383.000,1.000
0.289,-3.973,-0.884,-0.413,0.698,-1.612,1.015,-1.123,0.026,1.000,-0.207,-0.854,-0.427,-0.488,100.000,42384.000,1.000
1.158,-2.919,0.539,1.736,1.989,-0.815,1.450,-0.190,0.026,1.001,-0.205,-0.946,-0.488,-0.214,100.000,42385.000,1.000
2.145,-1.232,2.247,4.160,3.744,1.043,1.801,0.865,0.027,1.001,-0.206,-0.977,-0.610,-0.275,100.000,42386.000,1.000
2.785,0.427,3.700,6.325,5.359,2.932,2.047,2.059,0.026,1.002,-0.204,-0.977,-0.732,-0.092,100.000,42387.000,1.000
2.878,1.524,4.543,7.893,6.332,3.829,2.157,3.473,0.027,1.004,-0.203,-1.099,-0.702,0.000,100.000,42388.000,1.000
2.457,1.824,4.608,8.645,6.408,3.429,2.015,5.041,0.029,1.003,-0.204,-1.251,-0.702,-0.031,100.000,42389.000,1.000
1.580,1.273,3.796,8.373,5.538,2.176,1.479,6.322,0.029,1.000,-0.203,-1.434,-0.732,0.061,100.000,42390.000,1.000
0.309,-0.019,2.158,7.081,3.911,0.821,0.632,6.818,0.029,1.000,-0.202,-1.587,-0.763,0.031,100.000,42391.000,1.000
-1.192,-1.714,0.037,5.182,1.994,0.020,-0.038,6.575,0.028,0.999,-0.201,-1.678,-0.854,0.000,100.000,42392.000,1.000
-2.670,-3.349,-2.016,3.358,0.375,0.138,0.107,6.102,0.028,0.997,-0.200,-1.678,-0.977,-0.122,100.000,42393.000,1.000
-3.828,-4.500,-3.406,2.202,-0.505,1.217,1.310,5.733,0.028,0.998,-0.203,-1.740,-0.946,-0.183,100.000,42394.000,1.000
-4.483,-4.930,-3.717,1.866,-0.551,2.900,3.110,5.374,0.028,0.996,-0.200,-1.770,-0.946,-0.061,100.000,42395.000,1.000
-4.748,-4.721,-2.980,1.967,-0.088,4.360,4.513,4.731,0.031,0.995,-0.200,-1.678,-0.824,-0.122,100.000,42396.000,1.000
-4.868,-4.150,-1.638,1.942,0.379,4.735,4.677,3.668,0.032,0.993,-0.201,-1.556,-0.793,-0.183,100.000,42397.000,1.000
-4.888,-3.391,-0.222,1.532,0.572,3.814,3.652,2.443,0.031,0.991,-0.200,-1.495,-0.732,-0.183,100.000,42398.000,1.000
-4.711,-2.431,0.881,0.836,0.548,2.159,2.382,1.606,0.034,0.990,-0.207,-1.312,-0.702,-0.122,100.000,42399.000,1.000
-4.311,-1.219,1.536,0.120,0.549,0.677,1.941,1.707,0.033,0.989,-0.205,-1.251,-0.641,-0.092,100.000,42400.000,1.000
-3.705,0.175,1.894,-0.325,0.788,0.058,2.662,2.937,0.034,0.987,-0.204,-1.160,-0.519,0.000,100.000,42401.000,1.000
-2.916,1.460,2.166,-0.401,1.186,0.306,3.811,4.715,0.034,0.989,-0.206,-1.038,-0.427,0.183,100.000,42402.000,1.000
-2.048,2.222,2.391,-0.357,1.352,0.832,4.195,5.730,0.035,0.988,-0.207,-0.732,-0.305,0.305,100.000,42403.000,1.000
-1.289,2.228,2.498,-0.558,0.980,1.142,3.221,4.886,0.034,0.988,-0.205,-0.458,-0.122,0.275,100.000,42404.000,1.000
-0.738,1.689,2.539,-1.041,0.267,1.253,1.415,2.371,0.036,0.988,-0.206,-0.305,-0.061,0.183,100.000,42405.000,1.000
-0.227,1.269,2.811,-1.326,-0.067,1.522,-0.017,-0.317,0.035,0.989,-0.206,-0.122,0.092,0.366,100.000,42406.000,1.000
0.555,1.663,3.632,-0.793,0.689,2.162,-0.178,-1.506,0.035,0.992,-0.205,0.061,0.214,0.305,100.000,42407.000,1.000
1.583,3.002,4.919,0.673,2.573,2.921,0.753,-0.639,0.034,0.993,-0.205,0.244,0.366,0.275,100.000,42408.000,1.000
2.322,4.727,6.122,2.496,4.857,3.273,1.738,1.441,0.035,0.993,-0.207,0.244,0.427,0.275,100.000,42409.000,1.000
2.211,6.069,6.684,3.954,6.660,2.946,1.890,3.405,0.036,0.993,-0.206,0.427,0.519,0.336,100.000,42410.000,1.000
1.294,6.584,6.447,4.766,7.539,2.197,1.139,4.510,0.037,0.998,-0.206,0.397,0.671,0.305,100.000,42411.000,1.000
0.269,6.252,5.569,5.049,7.477,1.555,0.050,4.727,0.035,0.998,-0.208,0.519,0.793,0.061,100.000,42412.000,1.000
-0.090,5.249,4.266,4.968,6.650,1.372,-0.559,4.458,0.035,0.998,-0.208,0.610,0.793,0.092,100.000,42413.000,1.000
0.502,3.807,2.787,4.649,5.409,1.623,0.059,4.381,0.036,1.000,-0.205,0.580,0.793,0.061,100.000,42414.000,1.000
1.789,2.229,1.438,4.252,4.177,2.026,2.002,4.916,0.035,1.002,-0.207,0.488,0.916,0.000,100.000,42415.000,1.000
3.311,0.902,0.484,3.934,3.228,2.300,4.442,5.714,0.033,1.000,-0.207,0.549,1.038,-0.092,100.000,42416.000,1.000
4.682,0.183,0.069,3.782,2.624,2.301,6.194,6.046,0.032,1.000,-0.208,0.580,1.160,-0.092,100.000,42417.000,1.000
5.700,0.198,0.183,3.842,2.329,1.960,6.535,5.574,0.032,1.002,-0.205,0.519,1.099,-0.244,100.000,42418.000,1.000
6.324,0.814,0.657,4.161,2.294,1.214,5.488,4.577,0.032,1.002,-0.204,0.427,1.099,-0.183,100.000,42419.000,1.000
6.535,1.764,1.159,4.662,2.408,0.066,3.563,3.567,0.031,1.000,-0.206,0.366,1.129,-0.214,100.000,42420.000,1.000
6.218,2.679,1.252,4.969,2.363,-1.396,1.359,2.829,0.031,0.999,-0.206,0.336,1.099,-0.214,100.000,42421.000,1.000
5.358,3.201,0.651,4.593,1.778,-2.956,-0.693,2.244,0.031,0.996,-0.209,0.366,1.160,-0.214,100.000,42422.000,1.000
4.243,3.241,-0.486,3.381,0.542,-4.204,-2.287,1.470,0.031,1.000,-0.209,0.488,1.099,-0.061,100.000,42423.000,1.000
3.229,2.977,-1.710,1.604,-1.076,-4.720,-3.188,0.270,0.031,1.002,-0.210,0.610,0.977,-0.061,100.000,42424.000,1.000
2.430,2.608,-2.682,-0.293,-2.639,-4.387,-3.376,-1.296,0.029,1.003,-0.209,0.580,1.007,0.122,100.000,42425.000,1.000
1.748,2.156,-3.322,-1.864,-3.776,-3.491,-3.123,-2.909,0.029,1.003,-0.209,0.458,0.946,0.061,100.000,42426.000,1.000
0.905,1.389,-3.789,-2.832,-4.372,-2.591,-2.801,-4.085,0.026,1.002,-0.208,0.336,0.916,0.031,100.000,42427.000,1.000
-0.395,0.086,-4.255,-3.124,-4.449,-2.110,-2.500,-4.244,0.027,0.999,-0.209,0.336,0.885,0.153,100.000,42428.000,1.000
-1.980,-1.510,-4.552,-2.668,-3.862,-1.887,-1.852,-2.932,0.027,0.997,-0.210,0.305,0.824,0.427,100.000,42429.000,1.000
-3.174,-2.751,-4.276,-1.424,-2.444,-1.433,-0.508,-0.324,0.029,0.997,-0.208,0.397,0.702,0.336,100.000,42430.000,1.000
-3.447,-3.133,-3.327,0.274,-0.456,-0.656,1.218,2.539,0.028,0.997,-0.206,0.336,0.549,0.336,100.000,42431.000,1.000
-2.867,-2.624,-2.082,1.767,1.468,-0.020,2.507,4.369,0.027,0.999,-0.207,0.275,0.549,0.488,100.000,42432.000,1.000
-1.791,-1.498,-0.938,2.638,2.888,0.057,2.889,4.631,0.026,0.999,-0.211,0.305,0.519,0.336,100.000,42433.000,1.000
-0.405,-0.054,0.055,3.025,3.867,-0.384,2.618,3.782,0.025,0.998,-0.209,0.183,0.519,0.275,100.000,42434.000,1.000
1.277,1.478,1.037,3.294,4.755,-0.998,2.268,2.687,0.028,0.997,-0.210,0.153,0.244,0.092,100.000,42435.000,1.000
3.092,2.914,2.031,3.613,5.854,-1.357,2.311,2.068,0.030,0.997,-0.209,0.244,0.244,0.061,100.000,42436.000,1.000
4.536,4.027,2.805,3.816,7.176,-1.089,2.972,2.247,0.031,0.995,-0.209,0.214,0.183,-0.214,100.000,42437.000,1.000
4.972,4.561,2.986,3.586,8.362,-0.153,4.093,3.024,0.031,0.996,-0.211,0.183,0.183,-0.092,100.000,42438.000,1.000
4.093,4.477,2.378,2.783,8.908,1.091,5.170,3.856,0.032,0.995,-0.212,0.092,0.153,-0.275,100.000,42439.000,1.000
2.138,4.017,1.168,1.580,8.505,2.244,5.786,4.295,0.032,0.996,-0.210,0.183,0.122,-0.092,100.000,42440.000,1.000
-0.337,3.394,-0.226,0.256,7.126,3.133,5.825,4.221,0.031,0.996,-0.210,0.061,0.122,-0.214,100.000,42441.000,1.000
-2.830,2.520,-1.512,-1.089,4.849,3.530,5.126,3.558,0.030,0.997,-0.211,0.031,0.061,-0.183,100.000,42442.000,1.000
-5.071,1.170,-2.703,-2.635,1.749,2.950,3.292,2.006,0.030,0.997,-0.214,0.092,0.092,-0.336,100.000,42443.000,1.000
-6.788,-0.591,-3.795,-4.468,-1.856,1.164,0.257,-0.540,0.031,0.996,-0.213,-0.031,0.000,-0.336,100.000,42444.000,1.000
-7.336,-2.131,-4.305,-6.040,-5.119,-1.254,-3.206,-3.400,0.028,0.997,-0.211,-0.061,0.000,-0.275,100.000,42445.000,1.000
-5.917,-2.511,-3.435,-6.332,-6.970,-3.205,-5.907,-5.377,0.028,0.997,-0.211,-0.092,-0.092,-0.305,100.000,42446.000,1.000
-2.499,-1.237,-0.958,-4.851,-6.955,-3.871,-7.089,-5.733,0.031,0.999,-0.209,-0.122,0.000,-0.305,100.000,42447.000,1.000
1.614,1.140,2.189,-2.368,-5.714,-3.199,-6.765,-4.803,0.030,1.000,-0.210,-0.183,0.000,-0.336,100.000,42448.000,1.000
4.498,3.316,4.444,-0.442,-4.499,-1.727,-5.493,-3.715,0.028,1.000,-0.209,-0.366,-0.061,-0.366,100.000,42449.000,1.000
4.915,4.117,4.722,-0.221,-4.304,-0.238,-4.108,-3.603,0.025,1.000,-0.210,-0.427,-0.183,-0.275,100.000,42450.000,1.000
2.878,3.153,3.003,-1.760,-5.367,0.542,-3.449,-4.922,0.027,1.001,-0.210,-0.580,-0.275,-0.305,100.000,42451.000,1.000
-0.587,0.991,0.206,-4.140,-7.096,0.380,-3.897,-7.202,0.028,1.000,-0.208,-0.610,-0.305,-0.214,100.000,42452.000,1.000
-3.960,-1.210,-2.314,-6.033,-8.411,-0.249,-5.091,-9.308,0.027,0.997,-0.210,-0.702,-0.336,-0.183,100.000,42453.000,1.000
-6.007,-2.521,-3.583,-6.550,-8.550,-0.671,-6.266,-10.205,0.029,0.998,-0.208,-0.641,-0.366,-0.305,100.000,42454.000,1.000
-6.436,-2.836,-3.591,-5.789,-7.643,-0.652,-6.760,-9.625,0.029,0.998,-0.208,-0.763,-0.244,-0.153,100.000,42455.000,1.000
-5.712,-2.565,-2.940,-4.454,-6.327,-0.341,-6.229,-7.943,0.027,0.999,-0.208,-0.916,-0.336,-0.244,100.000,42456.000,1.000
-4.338,-1.965,-2.065,-3.055,-5.010,0.192,-4.753,-5.621,0.030,0.998,-0.211,-0.977,-0.397,-0.214,100.000,42457.000,1.000
-2.533,-1.014,-1.054,-1.683,-3.731,0.998,-2.878,-3.096,0.029,0.996,-0.209,-0.916,-0.305,-0.153,100.000,42458.000,1.000
-0.509,0.144,-0.049,-0.409,-2.595,1.897,-1.421,-0.962,0.028,0.996,-0.207,-1.007,-0.336,-0.031,100.000,42459.000,1.000
1.239,0.980,0.505,0.431,-2.013,2.406,-1.039,0.111,0.030,0.995,-0.211,-1.007,-0.305,-0.122,100.000,42460.000,1.000
2.076,0.923,0.095,0.379,-2.431,2.134,-1.817,-0.396,0.031,0.997,-0.212,-1.038,-0.244,-0.214,100.000,42461.000,1.000
1.691,-0.157,-1.432,-0.799,-3.923,1.087,-3.243,-2.600,0.032,0.998,-0.211,-1.068,-0.183,-0.122,100.000,42462.000,1.000
0.469,-1.785,-3.626,-2.794,-6.034,-0.376,-4.644,-5.928,0.034,0.997,-0.208,-1.068,-0.183,-0.183,100.000,42463.000,1.000
-0.683,-3.130,-5.603,-4.815,-7.960,-1.747,-5.588,-9.201,0.034,0.999,-0.208,-1.038,-0.092,-0.183,100.000,42464.000,1.000
-1.044,-3.591,-6.630,-6.142,-8.994,-2.616,-6.005,-11.384,0.033,0.999,-0.209,-1.129,0.092,-0.275,100.000,42465.000,1.000
-0.592,-3.208,-6.578,-6.629,-8.948,-2.870,-6.062,-12.237,0.033,1.001,-0.211,-1.068,0.183,-0.427,100.000,42466.000,1.000
0.225,-2.428,-5.759,-6.605,-8.101,-2.608,-5.829,-12.060,0.034,1.001,-0.208,-1.129,0.244,-0.244,100.000,42467.000,1.000
1.091,-1.555,-4.422,-6.321,-6.769,-1.873,-5.109,-11.003,0.035,0.999,-0.207,-1.160,0.336,-0.183,100.000,42468.000,1.000
2.075,-0.544,-2.569,-5.671,-5.103,-0.652,-3.804,-9.039,0.035,0.996,-0.207,-1.221,0.427,-0.092,100.000,42469.000,1.000
3.244,0.597,-0.334,-4.562,-3.343,0.795,-2.303,-6.508,0.033,0.996,-0.205,-1.190,0.519,-0.214,100.000,42470.000,1.000
4.272,1.460,1.759,-3.292,-1.930,1.847,-1.228,-4.136,0.030,0.997,-0.205,-1.129,0.549,-0.275,100.000,42471.000,1.000
4.721,1.587,3.180,-2.209,-1.133,1.976,-0.887,-2.445,0.026,0.998,-0.204,-1.129,0.519,-0.427,100.000,42472.000,1.000
4.453,0.953,3.822,-1.273,-0.762,1.201,-1.088,-1.443,0.028,1.001,-0.203,-1.160,0.488,-0.610,100.000,42473.000,1.000
3.501,-0.190,3.841,-0.302,-0.453,0.050,-1.409,-0.949,0.028,1.002,-0.206,-1.404,0.488,-0.793,100.000,42474.000,1.000
1.959,-1.565,3.457,0.705,0.039,-0.775,-1.451,-0.780,0.034,1.002,-0.206,-1.404,0.519,-0.946,100.000,42475.000,1.000
0.327,-2.686,3.130,1.805,1.002,-0.665,-0.837,-0.475,0.036,1.002,-0.203,-1.434,0.580,-1.007,100.000,42476.000,1.000
-0.576,-2.995,3.381,3.109,2.664,0.567,0.601,0.514,0.037,0.998,-0.204,-1.648,0.793,-0.885,100.000,42477.000,1.000
-0.413,-2.483,4.177,4.323,4.686,2.429,2.467,2.090,0.036,0.995,-0.206,-1.617,0.824,-0.641,100.000,42478.000,1.000
0.398,-1.698,4.951,4.854,6.274,4.025,4.020,3.509,0.033,0.994,-0.208,-1.434,0.977,-0.671,100.000,42479.000,1.000
1.363,-1.021,5.398,4.606,6.981,4.743,4.845,4.280,0.030,0.994,-0.208,-1.434,1.038,-0.580,100.000,42480.000,1.000
2.391,-0.350,5.799,4.233,7.061,4.623,5.107,4.598,0.027,0.995,-0.207,-1.251,1.068,-0.519,100.000,42481.000,1.000
3.387,0.422,6.452,4.419,6.967,4.043,5.210,4.817,0.026,0.995,-0.208,-1.129,1.007,-0.336,100.000,42482.000,1.000
3.902,1.051,7.212,5.236,6.905,3.307,5.464,5.021,0.026,0.994,-0.207,-1.038,0.916,-0.336,100.000,42483.000,1.000
3.537,1.270,7.753,6.263,6.933,2.569,5.907,5.223,0.022,0.995,-0.208,-0.916,0.763,-0.031,100.000,42484.000,1.000
2.415,1.151,7.894,6.997,7.047,1.834,6.158,5.519,0.022,0.995,-0.207,-0.885,0.702,0.031,100.000,42485.000,1.000
1.048,0.986,7.589,7.093,7.132,1.124,5.777,5.894,0.019,0.994,-0.207,-0.885,0.488,0.092,100.000,42486.000,1.000
-0.085,0.974,6.836,6.430,7.042,0.757,4.892,6.151,0.020,0.997,-0.205,-0.793,0.397,0.061,100.000,42487.000,1.000
-0.859,0.975,5.565,4.983,6.550,1.020,3.994,5.994,0.021,0.997,-0.207,-0.702,0.275,0.061,100.000,42488.000,1.000
-1.505,0.557,3.604,2.693,5.257,1.579,3.173,5.027,0.021,0.998,-0.204,-0.610,0.183,0.122,100.000,42489.000,1.000
-2.214,-0.492,1.022,-0.278,2.943,1.769,2.180,3.034,0.022,0.995,-0.204,-0.671,0.000,0.031,100.000,42490.000,1.000
-2.789,-1.764,-1.602,-3.312,0.030,1.380,1.063,0.449,0.022,0.997,-0.202,-0.610,-0.214,0.092,100.000,42491.000,1.000
-2.855,-2.519,-3.570,-5.686,-2.619,0.793,0.167,-1.830,0.023,0.997,-0.206,-0.519,-0.397,0.183,100.000,42492.000,1.000
-2.260,-2.347,-4.606,-7.047,-4.280,0.456,-0.351,-3.142,0.026,0.996,-0.204,-0.610,-0.427,0.153,100.000,42493.000,1.000
-1.225,-1.483,-4.934,-7.454,-4.663,0.445,-0.576,-3.298,0.025,0.997,-0.205,-0.427,-0.458,0.244,100.000,42494.000,1.000
-0.342,-0.587,-5.056,-7.227,-3.917,0.463,-0.601,-2.430,0.026,0.997,-0.206,-0.427,-0.519,0.183,100.000,42495.000,1.000
-0.323,-0.277,-5.483,-6.832,-2.561,0.106,-0.497,-0.993,0.029,0.997,-0.203,-0.366,-0.580,0.397,100.000,42496.000,1.000
-1.357,-0.680,-6.348,-6.593,-1.197,-0.762,-0.295,0.452,0.030,0.998,-0.204,-0.336,-0.549,0.275,100.000,42497.000,1.000
-2.749,-1.326,-7.219,-6.400,-0.163,-1.840,0.131,1.700,0.031,0.999,-0.203,-0.397,-0.488,0.244,100.000,42498.000,1.000
-3.454,-1.559,-7.467,-5.854,0.468,-2.679,0.852,2.894,0.033,0.997,-0.204,-0.366,-0.427,0.214,100.000,42499.000,1.000
-2.855,-1.017,-6.771,-4.636,0.755,-3.053,1.592,4.170,0.034,0.994,-0.204,-0.244,-0.427,0.244,100.000,42500.000,1.000
-0.899,0.303,-5.131,-2.615,0.979,-2.944,1.953,5.529,0.033,0.998,-0.206,-0.305,-0.336,0.244,100.000,42501.000,1.000
2.161,2.179,-2.632,0.207,1.613,-2.404,1.853,6.860,0.034,0.995,-0.204,-0.336,-0.122,0.092,100.000,42502.000,1.000
5.817,4.214,0.516,3.678,2.965,-1.599,1.564,7.933,0.033,0.995,-0.206,-0.214,-0.061,0.031,100.000,42503.000,1.000
9.227,5.925,3.794,7.404,4.899,-0.767,1.442,8.518,0.033,0.997,-0.205,-0.244,0.031,0.061,100.000,42504.000,1.000
11.260,6.812,6.270,10.564,6.746,-0.157,1.615,8.398,0.034,0.998,-0.204,-0.153,0.092,0.031,100.000,42505.000,1.000
10.854,6.355,6.831,11.979,7.455,-0.093,1.810,7.255,0.032,0.995,-0.205,-0.214,0.214,0.061,100.000,42506.000,1.000
7.903,4.430,5.054,10.985,6.320,-0.771,1.635,4.957,0.032,0.996,-0.208,-0.183,0.305,-0.153,100.000,42507.000,1.000
3.849,1.851,1.933,8.308,3.782,-1.795,1.130,2.137,0.032,0.997,-0.206,-0.153,0.397,0.000,100.000,42508.000,1.000
0.873,-0.016,-0.667,5.609,1.203,-2.299,0.855,0.025,0.033,0.997,-0.206,-0.061,0.519,-0.061,100.000,42509.000,1.000
0.342,-0.278,-1.347,4.206,-0.185,-1.679,1.357,-0.483,0.032,0.996,-0.207,-0.153,0.610,-0.122,100.000,42510.000,1.000
2.097,0.984,0.109,4.383,0.030,-0.036,2.660,0.589,0.032,0.997,-0.208,-0.122,0.671,-0.092,100.000,42511.000,1.000
4.821,2.909,2.863,5.546,1.421,1.991,4.268,2.553,0.032,0.997,-0.208,-0.122,0.793,-0.031,100.000,42512.000,1.000
6.851,4.303,5.536,6.687,3.040,3.581,5.505,4.566,0.029,0.999,-0.204,-0.183,0.916,0.031,100.000,42513.000,1.000
7.021,4.294,6.893,6.964,3.934,4.058,5.878,6.053,0.029,1.000,-0.204,-0.092,0.885,-0.031,100.000,42514.000,1.000
5.225,2.833,6.518,6.215,3.721,3.243,5.373,6.954,0.028,0.997,-0.203,-0.153,0.824,-0.061,100.000,42515.000,1.000
2.352,0.636,4.975,5.008,2.736,1.571,4.470,7.553,0.029,0.999,-0.204,-0.153,0.916,0.061,100.000,42516.000,1.000
-0.343,-1.315,3.311,4.150,1.682,-0.261,3.745,8.060,0.029,0.999,-0.205,-0.244,0.824,0.061,100.000,42517.000,1.000
-1.997,-2.274,2.316,4.046,1.130,-1.757,3.462,8.357,0.030,0.999,-0.208,-0.305,0.916,0.031,100.000,42518.000,1.000
-2.581,-2.165,2.016,4.324,1.144,-2.767,3.443,8.032,0.027,0.999,-0.210,-0.275,0.885,0.061,100.000,42519.000,1.000
-2.769,-1.731,1.723,4.033,1.161,-3.454,3.109,6.613,0.028,0.999,-0.209,-0.458,0.793,0.244,100.000,42520.000,1.000
-3.281,-1.968,0.684,2.452,0.418,-4.143,1.836,3.940,0.026,1.000,-0.208,-0.366,0.763,0.275,100.000,42521.000,1.000
-4.333,-3.228,-1.216,-0.209,-1.267,-4.884,-0.381,0.463,0.027,1.000,-0.208,-0.427,0.763,0.275,100.000,42522.000,1.000
-5.669,-4.930,-3.347,-2.956,-3.218,-5.215,-2.648,-2.801,0.025,1.000,-0.209,-0.488,0.671,0.305,100.000,42523.000,1.000
-6.854,-6.118,-4.784,-4.744,-4.441,-4.568,-3.698,-4.713,0.027,1.000,-0.207,-0.641,0.702,0.305,100.000,42524.000,1.000
-7.509,-6.257,-4.923,-5.099,-4.436,-2.870,-2.932,-4.781,0.027,0.999,-0.206,-0.610,0.671,0.336,100.000,42525.000,1.000
-7.525,-5.604,-3.876,-4.311,-3.554,-0.744,-1.027,-3.638,0.026,0.999,-0.205,-0.610,0.488,0.427,100.000,42526.000,1.000
-7.090,-4.874,-2.323,-3.148,-2.587,0.882,0.675,-2.511,0.027,1.000,-0.205,-0.671,0.519,0.458,100.000,42527.000,1.000
-6.390,-4.466,-0.909,-2.301,-1.991,1.528,1.347,-2.108,0.028,1.000,-0.207,-0.793,0.458,0.488,100.000,42528.000,1.000
-5.402,-4.110,0.141,-2.008,-1.611,1.478,1.039,-2.174,0.028,0.999,-0.207,-0.824,0.366,0.427,100.000,42529.000,1.000
-3.984,-3.260,0.871,-2.110,-1.085,1.296,0.192,-2.061,0.026,1.001,-0.206,-1.007,0.305,0.641,100.000,42530.000,1.000
-2.092,-1.681,1.341,-2.344,-0.274,1.274,-0.734,-1.441,0.026,1.000,-0.208,-0.977,0.244,0.519,100.000,42531.000,1.000
0.035,0.329,1.549,-2.577,0.638,1.344,-1.430,-0.539,0.026,0.999,-0.207,-0.977,0.244,0.519,100.000,42532.000,1.000
1.856,2.150,1.476,-2.831,1.273,1.289,-1.919,-0.024,0.026,1.001,-0.206,-1.129,0.244,0.458,100.000,42533.000,1.000
2.835,3.298,1.214,-3.097,1.336,0.939,-2.457,-0.603,0.028,0.996,-0.207,-1.099,0.153,0.366,100.000,42534.000,1.000
2.879,3.749,1.059,-3.159,0.885,0.209,-3.226,-2.396,0.029,0.997,-0.209,-1.129,0.061,0.397,100.000,42535.000,1.000
2.546,3.931,1.472,-2.626,0.422,-0.792,-4.065,-4.525,0.030,0.997,-0.210,-1.099,0.061,0.305,100.000,42536.000,1.000
2.665,4.376,2.756,-1.224,0.574,-1.712,-4.580,-5.659,0.032,0.995,-0.208,-1.190,0.061,0.305,100.000,42537.000,1.000
3.566,5.185,4.621,0.819,1.481,-2.228,-4.650,-5.218,0.034,0.997,-0.208,-1.007,0.061,0.275,100.000,42538.000,1.000
4.832,5.926,6.263,2.849,2.672,-2.213,-4.427,-3.729,0.033,0.996,-0.208,-0.885,-0.031,0.153,100.000,42539.000,1.000
5.811,6.141,7.005,4.286,3.640,-1.542,-3.728,-2.034,0.032,0.997,-0.207,-0.824,0.122,0.153,100.000,42540.000,1.000
6.065,5.726,6.689,4.917,4.220,-0.028,-2.141,-0.715,0.032,0.996,-0.206,-0.793,0.061,0.092,100.000,42541.000,1.000
5.377,4.776,5.493,4.762,4.388,2.200,0.057,-0.186,0.033,0.996,-0.206,-0.763,0.214,0.122,100.000,42542.000,1.000
3.728,3.304,3.639,3.911,3.995,4.321,1.690,-0.626,0.032,0.995,-0.209,-0.702,0.275,0.092,100.000,42543.000,1.000
1.453,1.321,1.384,2.554,2.884,5.197,1.666,-1.740,0.035,0.995,-0.208,-0.702,0.244,-0.061,100.000,42544.000,1.000
-0.753,-0.811,-0.823,1.058,1.221,4.313,-0.027,-2.840,0.035,0.996,-0.208,-0.702,0.305,-0.031,100.000,42545.000,1.000
-2.238,-2.371,-2.417,-0.096,-0.470,2.220,-2.349,-3.198,0.033,0.996,-0.206,-0.702,0.336,-0.092,100.000,42546.000,1.000
-2.937,-2.888,-3.192,-0.649,-1.776,-0.020,-4.133,-2.545,0.034,0.996,-0.206,-0.549,0.336,-0.061,100.000,42547.000,1.000
-3.393,-2.616,-3.556,-0.807,-2.770,-1.631,-4.888,-1.391,0.033,0.998,-0.205,-0.519,0.427,-0.061,100.000,42548.000,1.000
-4.075,-2.183,-4.065,-0.944,-3.725,-2.342,-4.763,-0.629,0.032,0.998,-0.206,-0.580,0.519,-0.061,100.000,42549.000,1.000
-4.851,-2.012,-4.850,-1.224,-4.686,-2.254,-4.139,-0.913,0.031,0.997,-0.207,-0.549,0.580,-0.031,100.000,42550.000,1.000
-5.263,-2.207,-5.683,-1.642,-5.556,-1.821,-3.526,-2.434,0.033,0.999,-0.204,-0.488,0.549,-0.092,100.000,42551.000,1.000
-5.042,-2.655,-6.292,-2.126,-6.272,-1.653,-3.426,-4.851,0.032,0.999,-0.204,-0.488,0.610,-0.092,100.000,42552.000,1.000
-4.268,-3.077,-6.456,-2.473,-6.671,-2.031,-3.932,-7.367,0.032,0.997,-0.203,-0.549,0.580,-0.244,100.000,42553.000,1.000
-3.300,-3.190,-6.135,-2.500,-6.502,-2.718,-4.643,-9.190,0.030,0.996,-0.202,-0.580,0.580,-0.031,100.000,42554.000,1.000
-2.696,-2.942,-5.658,-2.362,-5.734,-3.259,-5.009,-9.967,0.029,0.998,-0.204,-0.610,0.519,-0.183,100.000,42555.000,1.000
-3.007,-2.558,-5.594,-2.530,-4.707,-3.343,-4.721,-9.773,0.030,0.999,-0.202,-0.671,0.488,-0.061,100.000,42556.000,1.000
-4.453,-2.382,-6.321,-3.418,-3.969,-2.978,-3.900,-8.901,0.028,1.000,-0.202,-0.671,0.519,-0.183,100.000,42557.000,1.000
-6.825,-2.686,-7.764,-5.087,-3.979,-2.428,-3.029,-7.764,0.027,0.999,-0.203,-0.702,0.305,-0.122,100.000,42558.000,1.000
-9.670,-3.531,-9.511,-7.240,-4.852,-1.973,-2.652,-6.877,0.027,0.998,-0.204,-0.763,0.275,-0.092,100.000,42559.000,1.000
-12.566,-4.802,-11.155,-9.434,-6.334,-1.756,-2.975,-6.648,0.028,0.998,-0.206,-0.763,0.153,-0.031,100.000,42560.000,1.000
-15.178,-6.274,-12.485,-11.266,-7.926,-1.777,-3.587,-7.015,0.028,1.000,-0.203,-0.702,0.092,0.000,100.000,42561.000,1.000
-17.062,-7.559,-13.324,-12.328,-8.989,-1.847,-3.615,-7.328,0.028,1.000,-0.205,-0.732,-0.031,-0.031,100.000,42562.000,1.000
-17.581,-8.117,-13.317,-12.180,-8.899,-1.654,-2.315,-6.702,0.028,0.999,-0.204,-0.641,-0.092,0.214,100.000,42563.000,1.000
-16.052,-7.408,-11.946,-10.414,-7.223,-0.911,0.410,-4.504,0.027,0.998,-0.203,-0.732,0.031,0.061,100.000,42564.000,1.000
-12.031,-5.062,-8.743,-6.750,-3.787,0.643,4.086,-0.589,0.026,0.998,-0.206,-0.702,-0.061,0.000,100.000,42565.000,1.000
-5.791,-1.157,-3.733,-1.333,1.142,3.035,8.010,4.635,0.027,0.999,-0.204,-0.763,-0.183,0.061,100.000,42566.000,1.000
1.321,3.497,2.127,4.823,6.553,5.607,11.328,10.043,0.028,0.999,-0.203,-0.763,-0.275,0.000,100.000,42567.000,1.000
7.247,7.501,7.099,9.909,10.831,7.121,13.021,13.948,0.028,0.999,-0.206,-0.946,-0.366,0.000,100.000,42568.000,1.000
10.166,9.459,9.500,12.193,12.494,6.635,12.303,14.951,0.029,0.999,-0.206,-0.946,-0.305,0.153,100.000,42569.000,1.000
9.413,8.683,8.668,11.056,11.040,4.238,9.225,12.809,0.029,1.000,-0.205,-1.068,-0.305,0.061,100.000,42570.000,1.000
5.829,5.641,5.365,7.370,7.274,1.045,4.837,8.585,0.031,1.000,-0.208,-1.068,-0.305,0.214,100.000,42571.000,1.000
1.385,1.761,1.294,2.920,2.810,-1.500,0.679,4.051,0.028,1.000,-0.203,-1.190,-0.336,0.122,100.000,42572.000,1.000
-1.797,-1.372,-1.872,-0.600,-0.830,-2.541,-1.989,0.751,0.030,1.001,-0.202,-1.221,-0.366,0.000,100.000,42573.000,1.000
-2.477,-2.760,-3.236,-2.327,-2.846,-2.235,-2.836,-0.829,0.029,0.997,-0.202,-1.190,-0.336,0.214,100.000,42574.000,1.000
-0.859,-2.306,-2.925,-2.488,-3.367,-1.406,-2.683,-1.439,0.030,0.995,-0.206,-1.099,-0.336,0.122,100.000,42575.000,1.000
1.628,-0.796,-1.902,-2.159,-3.238,-0.904,-2.850,-2.272,0.031,0.997,-0.207,-0.916,-0.305,0.153,100.000,42576.000,1.000
3.267,0.565,-1.281,-2.448,-3.345,-1.085,-3.974,-3.784,0.031,1.000,-0.202,-0.946,-0.275,0.061,100.000,42577.000,1.000
3.148,1.007,-1.488,-3.596,-3.896,-1.592,-5.538,-5.284,0.032,1.000,-0.202,-1.099,-0.153,0.031,100.000,42578.000,1.000
1.696,0.715,-1.974,-4.799,-4.363,-1.704,-6.495,-5.618,0.033,0.996,-0.203,-1.068,-0.153,0.031,100.000,42579.000,1.000
0.221,0.397,-1.846,-4.993,-4.131,-1.065,-6.217,-4.294,0.033,0.994,-0.203,-1.038,-0.153,0.061,100.000,42580.000,1.000
-0.169,0.455,-0.760,-3.850,-3.146,-0.086,-4.927,-2.048,0.033,0.991,-0.205,-0.946,0.000,0.000,100.000,42581.000,1.000
0.752,0.787,0.874,-1.973,-1.892,0.462,-3.359,-0.242,0.031,0.987,-0.204,-0.763,0.031,-0.153,100.000,42582.000,1.000
2.479,1.146,2.388,-0.238,-0.876,0.157,-2.059,0.296,0.032,0.986,-0.206,-0.549,0.031,-0.214,100.000,42583.000,1.000
4.170,1.359,3.291,0.785,-0.312,-0.879,-1.150,-0.284,0.033,0.989,-0.208,-0.427,0.061,-0.244,100.000,42584.000,1.000
5.013,1.290,3.328,0.927,-0.169,-2.236,-0.668,-1.298,0.034,0.992,-0.208,-0.183,0.153,-0.153,100.000,42585.000,1.000
4.617,0.873,2.480,0.350,-0.312,-3.445,-0.660,-2.049,0.033,0.992,-0.204,0.061,0.183,-0.092,100.000,42586.000,1.000
3.146,0.148,0.978,-0.552,-0.543,-3.982,-0.950,-2.064,0.033,0.993,-0.206,0.092,0.244,-0.122,100.000,42587.000,1.000
1.068,-0.756,-0.758,-1.334,-0.608,-3.330,-1.106,-1.208,0.033,0.992,-0.203,0.275,0.275,-0.092,100.000,42588.000,1.000
-1.065,-1.690,-2.263,-1.675,-0.316,-1.394,-0.744,0.332,0.033,0.993,-0.207,0.305,0.305,0.092,100.000,42589.000,1.000
-2.738,-2.570,-3.219,-1.537,0.241,1.115,0.069,2.068,0.032,0.993,-0.207,0.641,0.366,0.092,100.000,42590.000,1.000
-3.550,-3.311,-3.476,-1.065,0.768,3.085,0.846,3.370,0.031,0.995,-0.210,0.824,0.397,0.122,100.000,42591.000,1.000
-3.187,-3.663,-2.897,-0.261,1.172,3.853,1.178,3.898,0.029,1.002,-0.208,0.732,0.458,0.092,100.000,42592.000,1.000
-1.584,-3.344,-1.413,0.984,1.659,3.538,1.112,3.868,0.028,1.003,-0.206,0.641,0.397,0.031,100.000,42593.000,1.000
0.813,-2.332,0.731,2.516,2.472,2.818,1.145,3.875,0.027,1.004,-0.205,0.519,0.397,-0.153,100.000,42594.000,1.000
3.217,-0.885,3.022,3.906,3.690,2.497,1.935,4.511,0.026,1.005,-0.202,0.397,0.397,-0.122,100.000,42595.000,1.000
4.950,0.622,4.938,4.781,5.145,2.933,3.698,5.888,0.027,1.004,-0.203,0.214,0.366,-0.275,100.000,42596.000,1.000
5.644,1.789,6.069,4.949,6.404,3.707,5.772,7.371,0.028,1.004,-0.204,0.214,0.336,-0.519,100.000,42597.000,1.000
5.287,2.278,6.158,4.351,6.923,3.985,7.014,7.923,0.027,1.005,-0.206,0.061,0.305,-0.427,100.000,42598.000,1.000
4.256,1.941,5.260,3.139,6.378,3.242,6.751,6.972,0.027,1.005,-0.207,0.000,0.305,-0.519,100.000,42599.000,1.000
3.205,0.959,3.829,1.731,4.946,1.724,5.314,5.008,0.027,1.003,-0.204,-0.153,0.305,-0.488,100.000,42600.000,1.000
2.751,-0.178,2.555,0.641,3.241,0.186,3.655,3.168,0.025,1.003,-0.202,-0.244,0.214,-0.427,100.000,42601.000,1.000
3.139,-0.954,1.989,0.173,1.894,-0.781,2.496,2.264,0.025,1.002,-0.202,-0.275,0.183,-0.458,100.000,42602.000,1.000
4.077,-1.167,2.242,0.222,1.154,-1.062,1.927,2.389,0.025,1.003,-0.205,-0.366,0.153,-0.427,100.000,42603.000,1.000
4.903,-1.010,2.934,0.312,0.825,-0.800,1.671,3.029,0.024,1.002,-0.204,-0.366,0.214,-0.336,100.000,42604.000,1.000
5.057,-0.762,3.482,-0.046,0.551,-0.133,1.504,3.325,0.026,1.000,-0.204,-0.458,0.061,-0.183,100.000,42605.000,1.000
4.481,-0.468,3.550,-0.941,0.170,0.789,1.436,2.681,0.025,1.001,-0.204,-0.488,-0.061,-0.305,100.000,42606.000,1.000
3.549,0.018,3.177,-2.039,-0.245,1.730,1.609,1.205,0.024,1.003,-0.201,-0.763,-0.092,-0.092,100.000,42607.000,1.000
2.701,0.759,2.548,-2.899,-0.562,2.449,2.040,-0.563,0.023,1.003,-0.203,-0.885,-0.275,0.061,100.000,42608.000,1.000
2.179,1.610,1.787,-3.210,-0.711,2.753,2.496,-2.074,0.024,1.002,-0.202,-0.854,-0.305,0.214,100.000,42609.000,1.000
1.886,2.285,0.945,-2.835,-0.700,2.516,2.685,-2.839,0.023,1.001,-0.203,-1.068,-0.427,0.397,100.000,42610.000,1.000
1.538,2.558,0.145,-1.749,-0.518,1.887,2.551,-2.468,0.023,1.001,-0.201,-1.190,-0.488,0.366,100.000,42611.000,1.000
1.147,2.514,-0.264,0.062,0.002,1.390,2.372,-0.824,0.026,0.999,-0.202,-1.282,-0.610,0.336,100.000,42612.000,1.000
1.144,2.487,0.085,2.489,1.047,1.489,2.459,1.807,0.025,0.998,-0.202,-1.404,-0.610,0.366,100.000,42613.000,1.000
1.831,2.733,1.149,5.076,2.531,2.147,2.777,4.620,0.025,0.996,-0.202,-1.404,-0.641,0.458,100.000,42614.000,1.000
2.810,3.180,2.351,7.035,4.022,2.918,2.959,6.579,0.028,0.996,-0.204,-1.404,-0.763,0.549,100.000,42615.000,1.000
3.176,3.417,2.877,7.586,4.923,3.243,2.612,6.970,0.027,0.998,-0.205,-1.495,-0.732,0.458,100.000,42616.000,1.000
2.329,2.945,2.188,6.388,4.741,2.616,1.521,5.745,0.030,0.996,-0.205,-1.465,-0.763,0.366,100.000,42617.000,1.000
0.538,1.585,0.392,3.756,3.387,0.846,-0.196,3.356,0.031,0.994,-0.203,-1.465,-0.702,0.366,100.000,42618.000,1.000
-1.273,-0.305,-1.785,0.555,1.329,-1.563,-2.005,0.455,0.031,0.993,-0.205,-1.282,-0.702,0.458,100.000,42619.000,1.000
-2.259,-2.054,-3.458,-2.144,-0.622,-3.521,-3.215,-2.289,0.031,0.993,-0.205,-1.251,-0.519,0.275,100.000,42620.000,1.000
-2.333,-3.175,-4.212,-3.650,-1.866,-4.084,-3.505,-4.423,0.034,0.992,-0.202,-1.190,-0.458,0.366,100.000,42621.000,1.000
-2.187,-3.651,-4.361,-4.049,-2.408,-3.097,-3.167,-5.906,0.035,0.990,-0.202,-1.038,-0.336,0.336,100.000,42622.000,1.000
-2.583,-3.750,-4.508,-3.916,-2.661,-1.187,-2.805,-6.873,0.036,0.990,-0.204,-0.916,-0.244,0.275,100.000,42623.000,1.000
-3.651,-3.644,-4.902,-3.664,-2.943,0.801,-2.775,-7.221,0.036,0.990,-0.205,-0.854,0.031,0.244,100.000,42624.000,1.000
-4.756,-3.225,-5.194,-3.239,-3.153,2.340,-2.902,-6.543,0.036,0.992,-0.207,-0.702,0.183,0.275,100.000,42625.000,1.000
-4.975,-2.299,-4.754,-2.336,-2.901,3.299,-2.709,-4.495,0.037,0.991,-0.207,-0.732,0.397,0.214,100.000,42626.000,1.000
-3.943,-0.923,-3.308,-0.907,-1.968,3.747,-1.870,-1.335,0.038,0.990,-0.205,-0.366,0.488,0.183,100.000,42627.000,1.000
-2.265,0.491,-1.276,0.619,-0.621,3.756,-0.505,1.988,0.037,0.991,-0.205,-0.214,0.641,0.183,100.000,42628.000,1.000
-0.939,1.455,0.614,1.753,0.612,3.366,0.933,4.476,0.037,0.990,-0.205,-0.153,0.763,0.183,100.000,42629.000,1.000
-0.488,1.742,1.917,2.411,1.397,2.736,1.970,5.661,0.034,0.991,-0.206,-0.153,0.885,0.214,100.000,42630.000,1.000
-0.718,1.429,2.641,2.804,1.696,2.063,2.272,5.520,0.031,0.994,-0.206,-0.031,1.099,0.153,100.000,42631.000,1.000
-1.148,0.705,2.952,3.023,1.514,1.299,1.709,4.254,0.032,0.994,-0.204,0.153,1.129,0.183,100.000,42632.000,1.000
-1.363,-0.202,3.007,2.984,0.857,0.267,0.524,2.393,0.031,0.994,-0.203,0.275,1.099,0.153,100.000,42633.000,1.000
-1.041,-0.922,3.056,2.755,-0.075,-0.950,-0.621,0.815,0.030,0.997,-0.205,0.366,1.343,0.275,100.000,42634.000,1.000
-0.047,-1.054,3.388,2.620,-0.880,-1.999,-1.061,0.293,0.029,0.999,-0.206,0.427,1.343,0.366,100.000,42635.000,1.000
1.428,-0.405,4.116,2.818,-1.171,-2.467,-0.533,1.014,0.030,1.000,-0.203,0.397,1.373,0.275,100.000,42636.000,1.000
3.035,0.948,5.176,3.399,-0.719,-2.068,0.823,2.531,0.030,1.003,-0.207,0.519,1.312,0.336,100.000,42637.000,1.000
4.468,2.681,6.347,4.181,0.405,-0.935,2.518,4.083,0.029,1.002,-0.208,0.427,1.312,0.275,100.000,42638.000,1.000
5.432,4.213,7.184,4.720,1.689,0.194,3.751,4.942,0.027,1.002,-0.205,0.366,1.221,0.122,100.000,42639.000,1.000
5.685,4.917,7.212,4.546,2.389,0.354,3.759,4.627,0.027,1.003,-0.203,0.244,1.190,0.153,100.000,42640.000,1.000
5.286,4.570,6.389,3.587,2.040,-0.903,2.285,2.950,0.027,1.002,-0.205,0.183,1.160,0.153,100.000,42641.000,1.000
4.715,3.565,5.257,2.292,0.756,-3.144,-0.311,0.027,0.027,1.000,-0.207,0.122,0.977,0.183,100.000,42642.000,1.000
4.673,2.683,4.630,1.341,-0.859,-5.360,-3.222,-3.611,0.030,1.000,-0.210,0.031,1.007,0.000,100.000,42643.000,1.000
5.674,2.606,5.069,1.213,-2.071,-6.637,-5.570,-7.058,0.029,1.001,-0.212,0.000,0.946,0.122,100.000,42644.000,1.000
7.687,3.477,6.527,1.875,-2.444,-6.627,-6.786,-9.447,0.029,1.006,-0.208,0.000,0.885,0.275,100.000,42645.000,1.000
10.173,4.927,8.460,2.877,-1.976,-5.518,-6.731,-10.293,0.030,1.008,-0.207,-0.092,0.916,0.305,100.000,42646.000,1.000
12.393,6.427,10.194,3.722,-0.959,-3.780,-5.636,-9.604,0.029,1.008,-0.207,-0.366,0.732,0.336,100.000,42647.000,1.000
13.609,7.472,11.124,4.066,0.130,-2.059,-4.088,-7.936,0.029,1.006,-0.208,-0.458,0.732,0.366,100.000,42648.000,1.000
13.291,7.664,10.869,3.685,0.821,-0.970,-2.779,-6.187,0.028,1.003,-0.207,-0.519,0.610,0.519,100.000,42649.000,1.000
11.399,6.936,9.462,2.517,0.953,-0.738,-2.067,-4.982,0.030,0.999,-0.209,-0.580,0.519,0.458,100.000,42650.000,1.000
8.508,5.694,7.454,0.916,0.846,-1.069,-1.802,-4.187,0.030,0.999,-0.207,-0.793,0.458,0.488,100.000,42651.000,1.000
5.592,4.633,5.749,-0.240,1.185,-1.355,-1.555,-3.141,0.030,1.000,-0.207,-0.732,0.366,0.458,100.000,42652.000,1.000
3.435,4.302,5.073,-0.119,2.513,-1.071,-0.945,-1.490,0.031,1.000,-0.206,-0.793,0.305,0.397,100.000,42653.000,1.000
2.255,4.802,5.524,1.412,4.774,-0.063,0.178,0.480,0.030,1.000,-0.206,-0.854,0.275,0.336,100.000,42654.000,1.000
1.860,5.837,6.615,3.767,7.332,1.388,1.652,2.325,0.028,0.999,-0.208,-0.946,0.092,0.244,100.000,42655.000,1.000
1.880,6.865,7.553,5.981,9.257,2.586,2.944,3.822,0.025,0.998,-0.204,-0.977,0.122,0.122,100.000,42656.000,1.000
1.900,7.314,7.599,7.125,9.720,2.774,3.364,4.985,0.025,0.996,-0.207,-0.977,0.000,-0.153,100.000,42657.000,1.000
1.653,6.854,6.439,6.775,8.424,1.751,2.564,5.940,0.028,0.995,-0.207,-0.977,-0.092,-0.153,100.000,42658.000,1.000
1.049,5.470,4.258,5.166,5.731,0.043,0.826,6.598,0.026,0.996,-0.207,-1.099,-0.244,-0.275,100.000,42659.000,1.000
0.030,3.382,1.507,2.933,2.351,-1.615,-1.215,6.510,0.026,0.994,-0.210,-1.007,-0.183,-0.366,100.000,42660.000,1.000
-1.457,0.972,-1.316,0.757,-0.971,-2.679,-3.023,5.292,0.028,0.995,-0.209,-0.946,-0.305,-0.488,100.000,42661.000,1.000
-3.330,-1.322,-3.786,-0.888,-3.580,-2.812,-4.230,3.156,0.029,0.995,-0.210,-0.916,-0.305,-0.519,100.000,42662.000,1.000
-5.327,-3.121,-5.617,-1.895,-5.069,-2.006,-4.646,0.815,0.029,0.996,-0.209,-0.824,-0.366,-0.580,100.000,42663.000,1.000
-7.118,-4.190,-6.699,-2.486,-5.475,-0.703,-4.426,-1.104,0.029,0.997,-0.208,-0.885,-0.427,-0.427,100.000,42664.000,1.000
-8.431,-4.494,-7.094,-2.998,-5.181,0.566,-3.894,-2.363,0.026,0.994,-0.205,-0.824,-0.458,-0.519,100.000,42665.000,1.000
-9.031,-4.167,-6.953,-3.588,-4.553,1.609,-3.169,-2.923,0.027,0.995,-0.208,-0.854,-0.549,-0.580,100.000,42666.000,1.000
-8.692,-3.398,-6.397,-4.042,-3.729,2.429,-2.211,-2.740,0.028,0.997,-0.210,-0.793,-0.488,-0.488,100.000,42667.000,1.000
-7.446,-2.500,-5.562,-4.022,-2.809,2.851,-1.144,-1.872,0.029,0.999,-0.206,-0.854,-0.580,-0.488,100.000,42668.000,1.000
-5.796,-1.995,-4.753,-3.527,-2.114,2.512,-0.272,-0.580,0.029,0.998,-0.205,-0.885,-0.549,-0.366,100.000,42669.000,1.000
-4.404,-2.404,-4.378,-2.950,-2.057,1.192,0.204,0.799,0.028,0.998,-0.206,-0.885,-0.641,-0.275,100.000,42670.000,1.000
-3.601,-3.837,-4.650,-2.777,-2.792,-0.885,0.373,1.991,0.028,0.997,-0.205,-0.946,-0.580,-0.214,100.000,42671.000,1.000
-3.249,-5.740,-5.359,-3.245,-3.993,-3.004,0.597,2.883,0.028,0.997,-0.205,-0.885,-0.732,-0.366,100.000,42672.000,1.000
-2.928,-7.086,-5.930,-4.111,-4.960,-4.274,1.224,3.526,0.029,0.997,-0.203,-0.916,-0.580,-0.305,100.000,42673.000,1.000
-2.291,-7.107,-5.874,-4.821,-5.147,-4.276,2.107,3.877,0.030,0.999,-0.203,-0.916,-0.549,-0.336,100.000,42674.000,1.000
-1.290,-5.831,-5.131,-4.914,-4.558,-3.405,2.658,3.784,0.031,1.000,-0.207,-0.916,-0.580,-0.336,100.000,42675.000,1.000
-0.073,-3.905,-3.920,-4.218,-3.523,-2.365,2.556,3.304,0.032,1.000,-0.206,-0.824,-0.641,-0.305,100.000,42676.000,1.000
1.149,-2.077,-2.503,-2.860,-2.324,-1.471,2.090,2.656,0.031,1.001,-0.207,-0.885,-0.427,-0.244,100.000,42677.000,1.000
2.066,-0.861,-1.205,-1.214,-1.124,-0.593,1.711,1.866,0.030,1.001,-0.203,-0.854,-0.305,-0.092,100.000,42678.000,1.000
2.270,-0.463,-0.439,0.255,-0.059,0.429,1.544,0.843,0.029,1.003,-0.202,-0.977,-0.244,-0.153,100.000,42679.000,1.000
1.502,-0.829,-0.471,1.274,0.788,1.478,1.461,-0.260,0.031,1.001,-0.206,-1.007,-0.244,-0.214,100.000,42680.000,1.000
-0.046,-1.659,-1.163,1.923,1.448,2.276,1.452,-1.021,0.031,1.000,-0.207,-1.007,-0.153,-0.183,100.000,42681.000,1.000
-1.778,-2.544,-2.069,2.464,1.976,2.622,1.717,-1.033,0.031,0.997,-0.207,-1.129,-0.092,-0.153,100.000,42682.000,1.000
-3.072,-3.219,-2.803,2.992,2.285,2.380,2.312,-0.124,0.030,0.997,-0.206,-1.038,-0.092,-0.214,100.000,42683.000,1.000
-3.543,-3.579,-3.221,3.352,2.222,1.495,2.915,1.487,0.029,0.998,-0.208,-1.038,-0.031,-0.275,100.000,42684.000,1.000
-3.176,-3.554,-3.362,3.317,1.785,0.181,3.088,3.111,0.030,0.998,-0.206,-1.007,0.092,-0.153,100.000,42685.000,1.000
-2.559,-3.289,-3.589,2.563,0.942,-1.179,2.473,3.750,0.030,0.998,-0.204,-1.007,0.214,-0.244,100.000,42686.000,1.000
-2.798,-3.333,-4.616,0.631,-0.571,-2.310,0.899,2.611,0.029,0.999,-0.206,-1.038,0.214,-0.153,100.000,42687.000,1.000
-4.563,-4.108,-6.792,-2.489,-2.738,-2.920,-1.139,-0.132,0.029,0.997,-0.203,-0.885,0.244,-0.031,100.000,42688.000,1.000
-7.193,-5.242,-9.394,-5.834,-4.702,-2.518,-2.365,-3.177,0.029,0.999,-0.203,-0.946,0.275,0.000,100.000,42689.000,1.000
-9.243,-5.881,-11.174,-8.134,-5.348,-0.774,-1.658,-5.055,0.028,0.998,-0.205,-0.824,0.214,-0.061,100.000,42690.000,1.000
-9.820,-5.583,-11.507,-8.917,-4.401,1.932,0.888,-5.218,0.027,0.998,-0.202,-0.793,0.336,-0.092,100.000,42691.000,1.000
-9.079,-4.590,-10.707,-8.631,-2.572,4.551,3.962,-4.180,0.025,0.997,-0.200,-0.824,0.305,-0.122,100.000,42692.000,1.000
-7.716,-3.393,-9.478,-7.965,-0.806,6.071,5.997,-2.897,0.028,0.999,-0.203,-0.824,0.336,-0.031,100.000,42693.000,1.000
-6.315,-2.308,-8.361,-7.322,0.366,6.034,6.100,-2.128,0.029,0.998,-0.204,-0.854,0.366,0.122,100.000,42694.000,1.000
-5.078,-1.417,-7.533,-6.683,0.892,4.453,4.191,-2.172,0.027,0.998,-0.200,-0.763,0.366,0.122,100.000,42695.000,1.000
-3.950,-0.737,-6.897,-5.761,0.979,1.709,0.847,-2.917,0.028,0.998,-0.201,-0.824,0.305,-0.061,100.000,42696.000,1.000
-2.931,-0.378,-6.369,-4.435,0.814,-1.451,-2.825,-4.024,0.028,0.997,-0.203,-0.702,0.275,-0.031,100.000,42697.000,1.000
-2.261,-0.547,-6.107,-3.060,0.367,-4.205,-5.659,-5.148,0.027,0.998,-0.203,-0.763,0.305,-0.122,100.000,42698.000,1.000
-2.183,-1.293,-6.306,-2.239,-0.468,-5.908,-6.971,-6.011,0.029,0.999,-0.202,-0.671,0.305,0.031,100.000,42699.000,1.000
-2.605,-2.270,-6.800,-2.294,-1.565,-6.142,-6.709,-6.434,0.028,0.999,-0.202,-0.641,0.305,0.092,100.000,42700.000,1.000
-3.050,-2.855,-7.057,-2.999,-2.536,-4.869,-5.329,-6.407,0.027,0.998,-0.204,-0.610,0.275,0.122,100.000,42701.000,1.000
-2.989,-2.610,-6.626,-3.843,-3.076,-2.643,-3.579,-6.150,0.025,0.998,-0.202,-0.732,0.122,0.122,100.000,42702.000,1.000
-2.312,-1.679,-5.581,-4.518,-3.296,-0.468,-2.239,-6.082,0.024,1.001,-0.202,-0.702,0.153,0.061,100.000,42703.000,1.000
-1.504,-0.684,-4.458,-5.115,-3.619,0.816,-1.770,-6.506,0.023,1.002,-0.202,-0.671,0.153,0.092,100.000,42704.000,1.000
-1.261,-0.270,-3.825,-5.918,-4.384,0.987,-2.042,-7.327,0.026,1.002,-0.203,-0.610,-0.031,-0.031,100.000,42705.000,1.000
-1.946,-0.766,-3.965,-7.136,-5.652,0.221,-2.575,-8.319,0.027,1.001,-0.198,-0.671,0.031,0.061,100.000,42706.000,1.000
-3.289,-2.070,-4.741,-8.672,-7.155,-1.209,-3.048,-9.413,0.027,1.000,-0.200,-0.824,-0.031,0.183,100.000,42707.000,1.000
-4.497,-3.726,-5.611,-9.981,-8.340,-2.936,-3.358,-10.423,0.026,1.000,-0.202,-0.671,0.000,0.305,100.000,42708.000,1.000
-4.665,-5.131,-5.817,-10.266,-8.576,-4.446,-3.298,-10.781,0.025,1.001,-0.202,-0.702,-0.061,0.275,100.000,42709.000,1.000
-3.303,-5.705,-4.704,-8.939,-7.411,-5.167,-2.592,-9.922,0.026,0.998,-0.202,-0.732,-0.153,0.275,100.000,42710.000,1.000
-0.680,-5.051,-2.100,-6.026,-4.841,-4.788,-1.290,-7.842,0.027,0.997,-0.202,-0.763,-0.183,0.244,100.000,42711.000,1.000
2.305,-3.194,1.414,-2.313,-1.555,-3.600,0.076,-5.173,0.025,0.996,-0.199,-0.793,-0.153,0.214,100.000,42712.000,1.000
4.602,-0.728,4.699,0.931,1.209,-2.398,0.726,-2.905,0.026,0.998,-0.201,-0.732,-0.183,0.153,100.000,42713.000,1.000
5.440,1.355,6.647,2.610,2.326,-1.976,0.111,-1.937,0.027,0.998,-0.202,-0.702,-0.214,0.244,100.000,42714.000,1.000
4.605,2.150,6.720,2.366,1.395,-2.705,-1.695,-2.532,0.027,0.999,-0.202,-0.580,-0.244,0.336,100.000,42715.000,1.000
2.574,1.394,5.209,0.694,-1.084,-4.394,-3.989,-4.116,0.027,0.997,-0.199,-0.519,-0.275,0.275,100.000,42716.000,1.000
0.331,-0.305,3.145,-1.332,-3.915,-6.210,-5.778,-5.634,0.029,0.997,-0.200,-0.549,-0.397,0.153,100.000,42717.000,1.000
-1.251,-1.893,1.708,-2.646,-5.785,-6.962,-6.298,-6.134,0.028,0.997,-0.200,-0.549,-0.275,0.092,100.000,42718.000,1.000
-1.919,-2.576,1.500,-2.808,-5.952,-5.894,-5.449,-5.261,0.029,0.997,-0.200,-0.519,-0.244,0.153,100.000,42719.000,1.000
-1.860,-2.166,2.392,-2.051,-4.483,-3.289,-3.758,-3.404,0.029,0.996,-0.203,-0.458,-0.183,0.214,100.000,42720.000,1.000
-1.198,-0.946,3.948,-0.764,-1.946,-0.219,-1.847,-1.246,0.030,0.997,-0.202,-0.366,-0.153,0.092,100.000,42721.000,1.000
0.147,0.688,5.859,0.967,1.036,2.251,-0.054,0.813,0.030,0.998,-0.203,-0.214,-0.122,0.122,100.000,42722.000,1.000
2.274,2.470,7.986,3.237,3.914,3.592,1.481,2.662,0.029,0.997,-0.201,-0.275,-0.061,-0.031,100.000,42723.000,1.000
4.907,4.047,9.966,5.728,5.989,3.712,2.550,4.015,0.031,0.996,-0.203,-0.275,-0.061,-0.153,100.000,42724.000,1.000
7.149,4.774,10.975,7.476,6.409,2.764,2.919,4.356,0.033,0.996,-0.204,-0.275,0.031,-0.061,100.000,42725.000,1.000
7.952,4.149,10.270,7.581,4.845,1.254,2.661,3.574,0.032,0.998,-0.204,-0.214,0.153,-0.031,100.000,42726.000,1.000
6.929,2.356,7.897,6.011,2.022,-0.031,2.197,2.332,0.030,0.997,-0.202,-0.183,0.275,0.031,100.000,42727.000,1.000
4.634,0.194,4.756,3.662,-0.628,-0.441,1.981,1.570,0.032,0.998,-0.204,-0.183,0.366,-0.031,100.000,42728.000,1.000
2.161,-1.354,2.105,1.833,-1.758,0.341,2.412,1.898,0.032,0.995,-0.201,-0.183,0.336,0.092,100.000,42729.000,1.000
0.459,-1.608,0.900,1.504,-0.772,2.219,3.662,3.321,0.030,0.997,-0.204,-0.061,0.336,0.122,100.000,42730.000,1.000
-0.135,-0.529,1.328,2.818,1.870,4.513,5.207,5.183,0.029,0.997,-0.206,-0.031,0.549,0.153,100.000,42731.000,1.000
0.192,1.390,2.943,5.166,5.063,6.163,6.041,6.651,0.031,0.998,-0.204,0.092,0.549,-0.092,100.000,42732.000,1.000
1.122,3.568,5.158,7.696,7.886,6.508,5.750,7.526,0.032,0.998,-0.204,0.031,0.580,0.061,100.000,42733.000,1.000
2.339,5.568,7.435,9.740,9.992,5.777,4.940,8.348,0.031,0.997,-0.203,0.000,0.610,0.214,100.000,42734.000,1.000
3.372,7.018,9.168,10.928,11.356,4.765,4.516,9.607,0.032,0.998,-0.203,-0.092,0.641,0.214,100.000,42735.000,1.000
3.555,7.538,9.661,11.030,11.921,4.187,4.852,11.100,0.031,0.998,-0.204,-0.092,0.793,0.153,100.000,42736.000,1.000
2.330,6.826,8.386,9.853,11.516,4.343,5.669,12.032,0.032,0.997,-0.205,-0.153,0.824,0.183,100.000,42737.000,1.000
-0.322,4.877,5.365,7.465,10.040,5.115,6.409,11.599,0.031,0.999,-0.207,-0.092,0.854,0.214,100.000,42738.000,1.000
-3.754,2.125,1.296,4.345,7.624,6.063,6.536,9.514,0.029,1.000,-0.206,-0.092,0.885,0.214,100.000,42739.000,1.000
-6.922,-0.656,-2.721,1.172,4.640,6.669,5.724,6.172,0.028,1.001,-0.203,-0.214,0.885,0.305,100.000,42740.000,1.000
-8.874,-2.745,-5.664,-1.440,1.619,6.673,4.051,2.516,0.029,1.000,-0.202,-0.214,0.916,0.275,100.000,42741.000,1.000
-9.213,-3.872,-7.068,-3.092,-0.937,6.125,1.967,-0.355,0.028,0.999,-0.206,-0.336,0.854,0.366,100.000,42742.000,1.000
-8.097,-4.118,-7.038,-3.576,-2.592,5.248,0.097,-1.527,0.029,1.001,-0.205,-0.427,0.824,0.275,100.000,42743.000,1.000
-5.863,-3.479,-5.782,-2.747,-2.893,4.454,-0.869,-0.426,0.028,1.001,-0.207,-0.519,0.854,0.366,100.000,42744.000,1.000
-2.965,-1.891,-3.534,-0.670,-1.674,4.194,-0.581,2.801,0.029,1.002,-0.205,-0.549,0.763,0.336,100.000,42745.000,1.000
-0.069,0.414,-0.790,2.100,0.560,4.498,0.569,6.980,0.029,1.001,-0.207,-0.610,0.671,0.244,100.000,42746.000,1.000
2.200,2.905,1.798,4.719,2.884,4.885,1.757,10.391,0.026,1.002,-0.205,-0.732,0.641,0.153,100.000,42747.000,1.000
3.483,4.988,3.707,6.458,4.480,4.800,2.363,11.695,0.028,1.003,-0.203,-0.732,0.580,0.244,100.000,42748.000,1.000
3.678,6.140,4.596,6.905,4.891,4.044,2.243,10.632,0.025,1.004,-0.204,-0.702,0.549,0.366,100.000,42749.000,1.000
2.942,6.027,4.328,6.054,4.123,2.919,1.608,8.043,0.027,1.003,-0.206,-0.824,0.427,0.366,100.000,42750.000,1.000
1.656,4.586,3.064,4.304,2.588,2.034,0.804,5.252,0.025,1.000,-0.205,-0.885,0.366,0.397,100.000,42751.000,1.000
0.204,2.012,1.206,2.225,0.854,1.900,0.194,3.324,0.026,1.001,-0.202,-0.916,0.244,0.366,100.000,42752.000,1.000
-1.135,-1.128,-0.683,0.386,-0.556,2.618,0.023,2.598,0.028,1.000,-0.205,-0.946,0.153,0.397,100.000,42753.000,1.000
-2.035,-3.875,-1.942,-0.659,-1.281,3.742,0.166,2.550,0.028,0.998,-0.203,-1.007,0.092,0.397,100.000,42754.000,1.000
-2.132,-5.366,-2.131,-0.572,-1.322,4.406,0.081,2.199,0.029,0.999,-0.203,-0.946,0.000,0.061,100.000,42755.000,1.000
-1.297,-5.392,-1.343,0.470,-1.061,3.924,-0.633,1.004,0.027,1.000,-0.201,-0.916,-0.122,0.092,100.000,42756.000,1.000
0.202,-4.396,-0.106,1.756,-0.963,2.327,-1.749,-0.647,0.027,0.998,-0.200,-0.946,-0.183,0.000,100.000,42757.000,1.000
1.899,-3.044,1.022,2.433,-1.293,0.179,-2.697,-1.955,0.026,0.998,-0.202,-0.977,-0.336,0.000,100.000,42758.000,1.000
3.516,-1.769,1.826,2.111,-1.970,-1.922,-3.135,-2.449,0.026,0.997,-0.202,-0.854,-0.336,0.061,100.000,42759.000,1.000
5.144,-0.543,2.492,1.147,-2.578,-3.535,-3.044,-2.058,0.028,0.996,-0.203,-0.885,-0.458,0.092,100.000,42760.000,1.000
6.987,0.879,3.301,0.269,-2.696,-4.394,-2.548,-0.945,0.029,0.995,-0.203,-0.916,-0.397,0.061,100.000,42761.000,1.000
8.806,2.348,4.135,-0.099,-2.400,-4.491,-1.857,0.338,0.029,0.996,-0.204,-0.702,-0.580,-0.122,100.000,42762.000,1.000
9.773,3.151,4.364,-0.128,-2.344,-4.135,-1.259,0.897,0.031,0.993,-0.204,-0.610,-0.580,-0.244,100.000,42763.000,1.000
9.067,2.588,3.343,-0.294,-3.216,-3.890,-1.092,0.153,0.030,0.995,-0.204,-0.549,-0.549,-0.244,100.000,42764.000,1.000
6.561,0.618,0.974,-0.975,-5.165,-4.417,-1.767,-1.637,0.030,0.995,-0.206,-0.580,-0.580,-0.305,100.000,42765.000,1.000
2.960,-2.036,-2.167,-2.254,-7.676,-6.004,-3.547,-3.589,0.030,0.995,-0.207,-0.336,-0.580,-0.183,100.000,42766.000,1.000
-0.539,-4.208,-5.067,-3.801,-9.732,-8.036,-5.975,-4.690,0.031,0.995,-0.208,-0.275,-0.580,-0.366,100.000,42767.000,1.000
-2.801,-4.947,-6.749,-4.932,-10.280,-9.237,-7.770,-4.196,0.031,0.997,-0.204,-0.275,-0.580,-0.275,100.000,42768.000,1.000
-3.292,-4.127,-6.833,-5.036,-8.914,-8.600,-7.697,-2.051,0.033,0.996,-0.206,-0.305,-0.549,-0.397,100.000,42769.000,1.000
-2.228,-2.411,-5.687,-3.987,-6.154,-6.043,-5.490,0.970,0.033,0.996,-0.204,-0.305,-0.519,-0.366,100.000,42770.000,1.000
-0.244,-0.598,-3.993,-2.099,-3.044,-2.468,-1.987,3.723,0.033,0.998,-0.205,-0.244,-0.427,-0.427,100.000,42771.000,1.000
1.933,0.861,-2.278,0.162,-0.558,0.662,1.391,5.422,0.033,1.001,-0.205,-0.183,-0.366,-0.427,100.000,42772.000,1.000
3.572,1.779,-0.902,2.247,0.734,2.065,3.374,5.905,0.031,1.001,-0.206,-0.305,-0.366,-0.427,100.000,42773.000,1.000
4.048,2.001,-0.184,3.540,0.767,1.351,3.446,5.388,0.031,1.001,-0.204,-0.305,-0.336,-0.427,100.000,42774.000,1.000
3.163,1.550,-0.181,3.725,0.087,-0.731,2.157,4.349,0.030,1.002,-0.204,-0.336,-0.336,-0.366,100.000,42775.000,1.000
1.439,0.922,-0.388,3.212,-0.241,-2.723,0.884,3.523,0.029,0.999,-0.206,-0.427,-0.214,-0.488,100.000,42776.000,1.000
-0.113,0.858,-0.060,2.872,0.730,-3.407,0.836,3.460,0.029,0.998,-0.206,-0.427,-0.122,-0.488,100.000,42777.000,1.000
-0.720,1.665,1.059,3.214,3.035,-2.566,2.049,3.920,0.029,1.000,-0.206,-0.397,-0.183,-0.488,100.000,42778.000,1.000
-0.387,2.909,2.457,3.912,5.699,-0.955,3.445,3.977,0.030,1.000,-0.206,-0.458,-0.122,-0.427,100.000,42779.000,1.000
0.251,3.819,3.332,4.118,7.461,0.386,3.885,2.821,0.027,1.002,-0.205,-0.580,-0.122,-0.488,100.000,42780.000,1.000
0.568,3.945,3.285,3.227,7.658,0.827,3.049,0.410,0.027,1.001,-0.204,-0.488,-0.122,-0.427,100.000,42781.000,1.000
0.345,3.392,2.522,1.303,6.491,0.379,1.416,-2.646,0.024,1.001,-0.203,-0.549,-0.153,-0.488,100.000,42782.000,1.000
-0.294,2.594,1.536,-1.093,4.676,-0.422,-0.296,-5.587,0.024,1.001,-0.202,-0.702,-0.092,-0.488,100.000,42783.000,1.000
-0.927,2.077,0.875,-3.160,3.091,-0.894,-1.518,-7.729,0.026,1.001,-0.204,-0.824,-0.153,-0.183,100.000,42784.000,1.000
-0.832,2.370,1.104,-4.025,2.557,-0.685,-1.887,-8.469,0.024,1.001,-0.202,-0.916,-0.092,-0.275,100.000,42785.000,1.000
0.582,3.750,2.539,-3.153,3.458,0.135,-1.242,-7.503,0.023,1.001,-0.200,-0.977,-0.214,-0.092,100.000,42786.000,1.000
3.223,5.953,4.909,-0.759,5.453,1.361,0.313,-5.068,0.024,1.001,-0.202,-1.007,-0.275,-0.061,100.000,42787.000,1.000
6.377,8.344,7.515,2.363,7.731,2.815,2.383,-1.754,0.024,1.000,-0.201,-0.977,-0.458,0.031,100.000,42788.000,1.000
9.263,10.386,9.708,5.345,9.549,4.340,4.392,1.808,0.023,0.998,-0.203,-1.007,-0.458,0.122,100.000,42789.000,1.000
11.348,11.800,11.102,7.519,10.490,5.771,5.804,4.945,0.024,0.996,-0.204,-0.885,-0.519,0.153,100.000,42790.000,1.000
12.269,12.367,11.379,8.360,10.348,6.795,6.207,6.781,0.025,0.997,-0.205,-0.763,-0.519,0.244,100.000,42791.000,1.000
11.761,11.836,10.208,7.504,9.000,6.922,5.268,6.429,0.028,0.999,-0.205,-0.702,-0.488,0.153,100.000,42792.000,1.000
9.888,10.126,7.587,5.028,6.541,5.821,2.927,3.586,0.029,1.001,-0.204,-0.702,-0.519,0.183,100.000,42793.000,1.000
7.106,7.485,4.032,1.497,3.329,3.694,-0.345,-1.165,0.029,0.999,-0.203,-0.824,-0.580,0.305,100.000,42794.000,1.000
3.960,4.416,0.290,-2.412,-0.171,1.268,-3.663,-6.725,0.026,0.996,-0.205,-0.824,-0.580,0.397,100.000,42795.000,1.000
0.913,1.556,-2.959,-6.103,-3.445,-0.538,-6.030,-11.872,0.027,0.996,-0.205,-0.763,-0.488,0.488,100.000,42796.000,1.000
-1.608,-0.511,-5.203,-8.997,-5.945,-1.201,-6.732,-15.405,0.028,0.999,-0.205,-0.610,-0.488,0.519,100.000,42797.000,1.000
-3.279,-1.538,-6.270,-10.664,-7.332,-1.066,-5.790,-16.444,0.030,1.003,-0.201,-0.641,-0.458,0.305,100.000,42798.000,1.000
-4.037,-1.783,-6.440,-11.085,-7.683,-1.044,-4.024,-14.977,0.031,1.002,-0.200,-0.671,-0.427,0.336,100.000,42799.000,1.000
-4.141,-1.830,-6.233,-10.632,-7.382,-1.759,-2.473,-11.954,0.032,1.003,-0.203,-0.885,-0.336,0.397,100.000,42800.000,1.000
-4.064,-2.205,-6.027,-9.770,-6.826,-3.048,-1.653,-8.602,0.033,1.000,-0.202,-0.946,-0.366,0.214,100.000,42801.000,1.000
-4.230,-3.073,-5.852,-8.790,-6.202,-4.246,-1.452,-5.801,0.031,0.995,-0.203,-0.916,-0.214,0.336,100.000,42802.000,1.000
-4.820,-4.218,-5.510,-7.787,-5.495,-4.819,-1.667,-4.035,0.032,0.989,-0.203,-0.885,-0.122,0.336,100.000,42803.000,1.000
-5.896,-5.321,-4.925,-6.788,-4.664,-4.639,-2.199,-3.392,0.032,0.987,-0.205,-0.732,0.000,0.153,100.000,42804.000,1.000
-7.468,-6.159,-4.261,-5.810,-3.691,-3.778,-2.707,-3.452,0.030,0.986,-0.207,-0.580,0.153,0.061,100.000,42805.000,1.000
-9.251,-6.485,-3.664,-4.787,-2.507,-2.335,-2.573,-3.506,0.030,0.989,-0.207,-0.336,0.153,0.000,100.000,42806.000,1.000
-10.666,-6.139,-3.165,-3.675,-1.116,-0.565,-1.445,-3.132,0.030,0.992,-0.207,0.000,0.092,0.000,100.000,42807.000,1.000
-11.251,-5.334,-2.853,-2.614,0.202,1.027,0.303,-2.443,0.031,0.994,-0.206,0.000,0.305,0.061,100.000,42808.000,1.000
-10.842,-4.502,-2.792,-1.789,1.084,1.934,1.795,-1.696,0.031,0.996,-0.207,-0.061,0.427,0.031,100.000,42809.000,1.000
-9.440,-3.917,-2.830,-1.184,1.393,1.919,2.296,-0.916,0.031,0.995,-0.207,0.000,0.427,-0.031,100.000,42810.000,1.000
-7.228,-3.601,-2.695,-0.601,1.244,1.087,1.654,-0.020,0.030,0.993,-0.205,0.092,0.458,0.061,100.000,42811.000,1.000
